#Distance(A)    Macroscopic-Average    Planar-Average
  0.0000            -0.00001            -0.00001
  0.0626            -0.00001            -0.00001
  0.1252            -0.00001            -0.00001
  0.1878            -0.00001            -0.00001
  0.2504            -0.00001            -0.00001
  0.3130            -0.00001            -0.00001
  0.3756            -0.00001            -0.00001
  0.4382            -0.00001            -0.00001
  0.5009            -0.00001            -0.00001
  0.5635            -0.00001            -0.00001
  0.6261            -0.00001            -0.00001
  0.6887            -0.00001            -0.00001
  0.7513            -0.00001            -0.00001
  0.8139            -0.00001            -0.00001
  0.8765            -0.00001            -0.00001
  0.9391            -0.00001            -0.00001
  1.0017            -0.00000            -0.00001
  1.0643            -0.00000            -0.00001
  1.1269            -0.00000            -0.00001
  1.1895            -0.00000            -0.00001
  1.2521            -0.00000            -0.00001
  1.3147            -0.00000            -0.00001
  1.3773            -0.00000            -0.00000
  1.4399            -0.00000            -0.00000
  1.5026            -0.00000            -0.00000
  1.5652            -0.00000            -0.00000
  1.6278            -0.00000            -0.00000
  1.6904            -0.00000            -0.00000
  1.7530            -0.00000            -0.00000
  1.8156            -0.00000             0.00000
  1.8782            -0.00000             0.00000
  1.9408             0.00000             0.00000
  2.0034             0.00000             0.00000
  2.0660             0.00000             0.00000
  2.1286             0.00000             0.00000
  2.1912             0.00000             0.00000
  2.2538            -0.00000             0.00001
  2.3164            -0.00000             0.00001
  2.3790            -0.00000             0.00001
  2.4416            -0.00000             0.00001
  2.5043            -0.00000             0.00001
  2.5669            -0.00000             0.00001
  2.6295            -0.00001             0.00001
  2.6921            -0.00001             0.00001
  2.7547            -0.00001             0.00001
  2.8173            -0.00001             0.00001
  2.8799            -0.00001             0.00001
  2.9425            -0.00002             0.00001
  3.0051            -0.00002             0.00001
  3.0677            -0.00003             0.00001
  3.1303            -0.00003             0.00001
  3.1929            -0.00004             0.00001
  3.2555            -0.00005             0.00001
  3.3181            -0.00006             0.00001
  3.3807            -0.00007             0.00001
  3.4433            -0.00008             0.00001
  3.5060            -0.00010             0.00001
  3.5686            -0.00011             0.00001
  3.6312            -0.00013             0.00001
  3.6938            -0.00016             0.00001
  3.7564            -0.00018             0.00001
  3.8190            -0.00021             0.00000
  3.8816            -0.00024             0.00000
  3.9442            -0.00028            -0.00000
  4.0068            -0.00033            -0.00001
  4.0694            -0.00037            -0.00001
  4.1320            -0.00043            -0.00002
  4.1946            -0.00049            -0.00002
  4.2572            -0.00056            -0.00003
  4.3198            -0.00064            -0.00004
  4.3824            -0.00073            -0.00005
  4.4451            -0.00083            -0.00006
  4.5077            -0.00095            -0.00007
  4.5703            -0.00107            -0.00009
  4.6329            -0.00121            -0.00010
  4.6955            -0.00136            -0.00013
  4.7581            -0.00153            -0.00015
  4.8207            -0.00172            -0.00018
  4.8833            -0.00192            -0.00021
  4.9459            -0.00214            -0.00025
  5.0085            -0.00238            -0.00029
  5.0711            -0.00264            -0.00034
  5.1337            -0.00291            -0.00039
  5.1963            -0.00320            -0.00046
  5.2589            -0.00351            -0.00054
  5.3215            -0.00383            -0.00062
  5.3841            -0.00417            -0.00072
  5.4468            -0.00451            -0.00083
  5.5094            -0.00486            -0.00096
  5.5720            -0.00520            -0.00110
  5.6346            -0.00554            -0.00126
  5.6972            -0.00586            -0.00145
  5.7598            -0.00615            -0.00166
  5.8224            -0.00641            -0.00190
  5.8850            -0.00662            -0.00217
  5.9476            -0.00678            -0.00248
  6.0102            -0.00688            -0.00281
  6.0728            -0.00694            -0.00319
  6.1354            -0.00697            -0.00362
  6.1980            -0.00700            -0.00409
  6.2606            -0.00704            -0.00461
  6.3232            -0.00711            -0.00519
  6.3858            -0.00721            -0.00583
  6.4485            -0.00734            -0.00653
  6.5111            -0.00746            -0.00729
  6.5737            -0.00757            -0.00811
  6.6363            -0.00764            -0.00900
  6.6989            -0.00767            -0.00995
  6.7615            -0.00767            -0.01097
  6.8241            -0.00764            -0.01205
  6.8867            -0.00759            -0.01317
  6.9493            -0.00753            -0.01433
  7.0119            -0.00747            -0.01550
  7.0745            -0.00741            -0.01668
  7.1371            -0.00737            -0.01785
  7.1997            -0.00733            -0.01897
  7.2623            -0.00730            -0.02002
  7.3249            -0.00729            -0.02095
  7.3875            -0.00730            -0.02172
  7.4502            -0.00732            -0.02227
  7.5128            -0.00734            -0.02253
  7.5754            -0.00738            -0.02242
  7.6380            -0.00742            -0.02185
  7.7006            -0.00746            -0.02074
  7.7632            -0.00750            -0.01903
  7.8258            -0.00752            -0.01667
  7.8884            -0.00753            -0.01369
  7.9510            -0.00752            -0.01026
  8.0136            -0.00749            -0.00681
  8.0762            -0.00745            -0.00389
  8.1388            -0.00739            -0.00208
  8.2014            -0.00733            -0.00172
  8.2640            -0.00728            -0.00273
  8.3266            -0.00722            -0.00464
  8.3893            -0.00718            -0.00665
  8.4519            -0.00712            -0.00798
  8.5145            -0.00705            -0.00812
  8.5771            -0.00696            -0.00697
  8.6397            -0.00683            -0.00486
  8.7023            -0.00667            -0.00236
  8.7649            -0.00647             0.00000
  8.8275            -0.00623             0.00185
  8.8901            -0.00596             0.00305
  8.9527            -0.00567             0.00363
  9.0153            -0.00534             0.00371
  9.0779            -0.00500             0.00341
  9.1405            -0.00465             0.00281
  9.2031            -0.00429             0.00202
  9.2657            -0.00392             0.00109
  9.3283            -0.00356             0.00011
  9.3910            -0.00320            -0.00088
  9.4536            -0.00285            -0.00183
  9.5162            -0.00252            -0.00267
  9.5788            -0.00220            -0.00333
  9.6414            -0.00191            -0.00375
  9.7040            -0.00165            -0.00390
  9.7666            -0.00141            -0.00374
  9.8292            -0.00120            -0.00326
  9.8918            -0.00102            -0.00249
  9.9544            -0.00087            -0.00153
 10.0170            -0.00076            -0.00059
 10.0796            -0.00068             0.00013
 10.1422            -0.00064             0.00042
 10.2048            -0.00061             0.00020
 10.2674            -0.00058            -0.00044
 10.3300            -0.00055            -0.00128
 10.3927            -0.00049            -0.00199
 10.4553            -0.00040            -0.00230
 10.5179            -0.00029            -0.00204
 10.5805            -0.00016            -0.00120
 10.6431            -0.00004             0.00007
 10.7057             0.00007             0.00156
 10.7683             0.00017             0.00306
 10.8309             0.00023             0.00439
 10.8935             0.00028             0.00546
 10.9561             0.00030             0.00620
 11.0187             0.00031             0.00660
 11.0813             0.00029             0.00665
 11.1439             0.00027             0.00635
 11.2065             0.00023             0.00573
 11.2691             0.00018             0.00483
 11.3317             0.00013             0.00369
 11.3944             0.00007             0.00235
 11.4570             0.00002             0.00086
 11.5196            -0.00003            -0.00067
 11.5822            -0.00007            -0.00217
 11.6448            -0.00011            -0.00351
 11.7074            -0.00013            -0.00457
 11.7700            -0.00014            -0.00523
 11.8326            -0.00015            -0.00540
 11.8952            -0.00014            -0.00502
 11.9578            -0.00013            -0.00416
 12.0204            -0.00011            -0.00299
 12.0830            -0.00010            -0.00176
 12.1456            -0.00008            -0.00075
 12.2082            -0.00008            -0.00019
 12.2708            -0.00007            -0.00012
 12.3335            -0.00007            -0.00043
 12.3961            -0.00006            -0.00083
 12.4587            -0.00004            -0.00102
 12.5213            -0.00002            -0.00076
 12.5839             0.00001             0.00002
 12.6465             0.00004             0.00118
 12.7091             0.00007             0.00248
 12.7717             0.00009             0.00364
 12.8343             0.00011             0.00444
 12.8969             0.00012             0.00474
 12.9595             0.00012             0.00454
 13.0221             0.00012             0.00388
 13.0847             0.00010             0.00288
 13.1473             0.00008             0.00166
 13.2099             0.00005             0.00032
 13.2725             0.00002            -0.00102
 13.3352            -0.00002            -0.00229
 13.3978            -0.00007            -0.00342
 13.4604            -0.00011            -0.00435
 13.5230            -0.00015            -0.00503
 13.5856            -0.00019            -0.00545
 13.6482            -0.00022            -0.00556
 13.7108            -0.00024            -0.00535
 13.7734            -0.00025            -0.00481
 13.8360            -0.00024            -0.00396
 13.8986            -0.00022            -0.00286
 13.9612            -0.00019            -0.00164
 14.0238            -0.00015            -0.00048
 14.0864            -0.00011             0.00042
 14.1490            -0.00008             0.00090
 14.2116            -0.00006             0.00091
 14.2742            -0.00006             0.00050
 14.3369            -0.00006            -0.00013
 14.3995            -0.00006            -0.00072
 14.4621            -0.00005            -0.00102
 14.5247            -0.00003            -0.00087
 14.5873            -0.00000            -0.00024
 14.6499             0.00003             0.00077
 14.7125             0.00007             0.00199
 14.7751             0.00010             0.00322
 14.8377             0.00012             0.00431
 14.9003             0.00012             0.00513
 14.9629             0.00011             0.00564
 15.0255             0.00008             0.00580
 15.0881             0.00005             0.00564
 15.1507             0.00002             0.00518
 15.2133            -0.00002             0.00444
 15.2759            -0.00006             0.00346
 15.3386            -0.00009             0.00228
 15.4012            -0.00012             0.00096
 15.4638            -0.00014            -0.00045
 15.5264            -0.00016            -0.00184
 15.5890            -0.00017            -0.00311
 15.6516            -0.00017            -0.00416
 15.7142            -0.00016            -0.00485
 15.7768            -0.00014            -0.00508
 15.8394            -0.00011            -0.00479
 15.9020            -0.00008            -0.00401
 15.9646            -0.00005            -0.00288
 16.0272            -0.00002            -0.00163
 16.0898            -0.00000            -0.00054
 16.1524             0.00001             0.00016
 16.2150             0.00000             0.00036
 16.2777            -0.00001             0.00015
 16.3403            -0.00003            -0.00024
 16.4029            -0.00004            -0.00049
 16.4655            -0.00004            -0.00038
 16.5281            -0.00003             0.00022
 16.5907            -0.00001             0.00122
 16.6533             0.00002             0.00242
 16.7159             0.00005             0.00354
 16.7785             0.00008             0.00435
 16.8411             0.00011             0.00471
 16.9037             0.00012             0.00459
 16.9663             0.00013             0.00401
 17.0289             0.00013             0.00307
 17.0915             0.00012             0.00189
 17.1541             0.00010             0.00057
 17.2167             0.00007            -0.00078
 17.2794             0.00004            -0.00207
 17.3420             0.00001            -0.00322
 17.4046            -0.00003            -0.00419
 17.4672            -0.00007            -0.00492
 17.5298            -0.00011            -0.00539
 17.5924            -0.00014            -0.00557
 17.6550            -0.00016            -0.00543
 17.7176            -0.00018            -0.00497
 17.7802            -0.00017            -0.00418
 17.8428            -0.00016            -0.00314
 17.9054            -0.00013            -0.00195
 17.9680            -0.00009            -0.00077
 18.0306            -0.00006             0.00021
 18.0932            -0.00003             0.00081
 18.1558            -0.00001             0.00095
 18.2184            -0.00001             0.00066
 18.2811            -0.00002             0.00009
 18.3437            -0.00003            -0.00051
 18.4063            -0.00003            -0.00089
 18.4689            -0.00002            -0.00086
 18.5315             0.00000            -0.00037
 18.5941             0.00004             0.00053
 18.6567             0.00007             0.00167
 18.7193             0.00010             0.00288
 18.7819             0.00012             0.00397
 18.8445             0.00012             0.00482
 18.9071             0.00011             0.00536
 18.9697             0.00009             0.00558
 19.0323             0.00006             0.00548
 19.0949             0.00002             0.00508
 19.1575            -0.00001             0.00441
 19.2201            -0.00005             0.00350
 19.2828            -0.00008             0.00238
 19.3454            -0.00011             0.00112
 19.4080            -0.00014            -0.00024
 19.4706            -0.00016            -0.00159
 19.5332            -0.00016            -0.00284
 19.5958            -0.00016            -0.00388
 19.6584            -0.00016            -0.00460
 19.7210            -0.00014            -0.00488
 19.7836            -0.00011            -0.00467
 19.8462            -0.00008            -0.00397
 19.9088            -0.00005            -0.00290
 19.9714            -0.00002            -0.00169
 20.0340             0.00001            -0.00059
 20.0966             0.00002             0.00015
 20.1592             0.00001             0.00042
 20.2218             0.00000             0.00026
 20.2845            -0.00002            -0.00012
 20.3471            -0.00003            -0.00041
 20.4097            -0.00004            -0.00035
 20.4723            -0.00003             0.00017
 20.5349            -0.00001             0.00112
 20.5975             0.00002             0.00229
 20.6601             0.00005             0.00342
 20.7227             0.00008             0.00428
 20.7853             0.00011             0.00470
 20.8479             0.00013             0.00464
 20.9105             0.00014             0.00411
 20.9731             0.00014             0.00322
 21.0357             0.00013             0.00207
 21.0983             0.00012             0.00077
 21.1609             0.00010            -0.00056
 21.2236             0.00007            -0.00186
 21.2862             0.00003            -0.00302
 21.3488            -0.00000            -0.00401
 21.4114            -0.00004            -0.00478
 21.4740            -0.00008            -0.00528
 21.5366            -0.00011            -0.00550
 21.5992            -0.00014            -0.00542
 21.6618            -0.00015            -0.00501
 21.7244            -0.00015            -0.00428
 21.7870            -0.00014            -0.00329
 21.8496            -0.00011            -0.00212
 21.9122            -0.00008            -0.00095
 21.9748            -0.00004             0.00005
 22.0374            -0.00002             0.00070
 22.1000            -0.00000             0.00090
 22.1626             0.00000             0.00066
 22.2253            -0.00001             0.00013
 22.2879            -0.00002            -0.00047
 22.3505            -0.00002            -0.00088
 22.4131            -0.00001            -0.00091
 22.4757             0.00001            -0.00048
 22.5383             0.00004             0.00036
 22.6009             0.00007             0.00147
 22.6635             0.00010             0.00267
 22.7261             0.00012             0.00377
 22.7887             0.00013             0.00465
 22.8513             0.00012             0.00524
 22.9139             0.00010             0.00550
 22.9765             0.00007             0.00545
 23.0391             0.00004             0.00509
 23.1017            -0.00000             0.00447
 23.1643            -0.00004             0.00360
 23.2270            -0.00007             0.00253
 23.2896            -0.00010             0.00130
 23.3522            -0.00013            -0.00003
 23.4148            -0.00015            -0.00136
 23.4774            -0.00016            -0.00262
 23.5400            -0.00016            -0.00367
 23.6026            -0.00015            -0.00443
 23.6652            -0.00014            -0.00477
 23.7278            -0.00011            -0.00462
 23.7904            -0.00008            -0.00399
 23.8530            -0.00005            -0.00298
 23.9156            -0.00002            -0.00180
 23.9782             0.00001            -0.00070
 24.0408             0.00002             0.00008
 24.1034             0.00002             0.00040
 24.1660             0.00001             0.00028
 24.2287            -0.00001            -0.00008
 24.2913            -0.00003            -0.00039
 24.3539            -0.00003            -0.00039
 24.4165            -0.00003             0.00008
 24.4791            -0.00001             0.00098
 24.5417             0.00002             0.00214
 24.6043             0.00005             0.00330
 24.6669             0.00008             0.00420
 24.7295             0.00011             0.00469
 24.7921             0.00013             0.00469
 24.8547             0.00014             0.00422
 24.9173             0.00014             0.00337
 24.9799             0.00014             0.00225
 25.0425             0.00012             0.00097
 25.1051             0.00010            -0.00037
 25.1678             0.00007            -0.00166
 25.2304             0.00004            -0.00285
 25.2930             0.00000            -0.00386
 25.3556            -0.00003            -0.00465
 25.4182            -0.00007            -0.00519
