#Distance(A)    Macroscopic-Average    Planar-Average
  0.0000             0.00016             0.00017
  0.0619             0.00016             0.00017
  0.1237             0.00016             0.00017
  0.1856             0.00016             0.00017
  0.2475             0.00016             0.00017
  0.3093             0.00016             0.00017
  0.3712             0.00016             0.00017
  0.4331             0.00016             0.00017
  0.4949             0.00016             0.00017
  0.5568             0.00016             0.00017
  0.6187             0.00016             0.00017
  0.6805             0.00016             0.00017
  0.7424             0.00015             0.00017
  0.8043             0.00015             0.00016
  0.8661             0.00015             0.00016
  0.9280             0.00015             0.00016
  0.9899             0.00015             0.00015
  1.0517             0.00014             0.00015
  1.1136             0.00014             0.00015
  1.1755             0.00014             0.00015
  1.2373             0.00013             0.00014
  1.2992             0.00013             0.00014
  1.3611             0.00013             0.00013
  1.4230             0.00012             0.00013
  1.4848             0.00012             0.00012
  1.5467             0.00011             0.00012
  1.6086             0.00011             0.00012
  1.6704             0.00011             0.00011
  1.7323             0.00010             0.00011
  1.7942             0.00010             0.00010
  1.8560             0.00009             0.00010
  1.9179             0.00009             0.00009
  1.9798             0.00008             0.00008
  2.0416             0.00008             0.00008
  2.1035             0.00007             0.00008
  2.1654             0.00007             0.00007
  2.2272             0.00006             0.00007
  2.2891             0.00006             0.00006
  2.3510             0.00005             0.00005
  2.4128             0.00005             0.00005
  2.4747             0.00004             0.00004
  2.5366             0.00004             0.00004
  2.5984             0.00003             0.00003
  2.6603             0.00003             0.00003
  2.7222             0.00002             0.00002
  2.7840             0.00002             0.00002
  2.8459             0.00001             0.00001
  2.9078             0.00001             0.00000
  2.9696             0.00000            -0.00000
  3.0315            -0.00000            -0.00001
  3.0934            -0.00001            -0.00001
  3.1552            -0.00002            -0.00001
  3.2171            -0.00002            -0.00002
  3.2790            -0.00003            -0.00002
  3.3408            -0.00003            -0.00003
  3.4027            -0.00004            -0.00004
  3.4646            -0.00004            -0.00004
  3.5264            -0.00005            -0.00005
  3.5883            -0.00005            -0.00005
  3.6502            -0.00006            -0.00006
  3.7120            -0.00007            -0.00006
  3.7739            -0.00007            -0.00007
  3.8358            -0.00008            -0.00007
  3.8976            -0.00008            -0.00008
  3.9595            -0.00009            -0.00009
  4.0214            -0.00010            -0.00009
  4.0832            -0.00010            -0.00009
  4.1451            -0.00011            -0.00010
  4.2070            -0.00012            -0.00010
  4.2689            -0.00013            -0.00011
  4.3307            -0.00014            -0.00012
  4.3926            -0.00015            -0.00013
  4.4545            -0.00016            -0.00014
  4.5163            -0.00017            -0.00014
  4.5782            -0.00018            -0.00015
  4.6401            -0.00020            -0.00016
  4.7019            -0.00021            -0.00017
  4.7638            -0.00023            -0.00018
  4.8257            -0.00025            -0.00019
  4.8875            -0.00027            -0.00020
  4.9494            -0.00029            -0.00022
  5.0113            -0.00031            -0.00023
  5.0731            -0.00034            -0.00025
  5.1350            -0.00036            -0.00026
  5.1969            -0.00040            -0.00028
  5.2587            -0.00043            -0.00030
  5.3206            -0.00047            -0.00033
  5.3825            -0.00051            -0.00036
  5.4443            -0.00055            -0.00039
  5.5062            -0.00059            -0.00043
  5.5681            -0.00064            -0.00046
  5.6299            -0.00070            -0.00050
  5.6918            -0.00075            -0.00055
  5.7537            -0.00081            -0.00060
  5.8155            -0.00087            -0.00066
  5.8774            -0.00093            -0.00072
  5.9393            -0.00100            -0.00079
  6.0011            -0.00106            -0.00086
  6.0630            -0.00112            -0.00094
  6.1249            -0.00119            -0.00102
  6.1867            -0.00124            -0.00111
  6.2486            -0.00130            -0.00121
  6.3105            -0.00134            -0.00132
  6.3723            -0.00138            -0.00143
  6.4342            -0.00141            -0.00154
  6.4961            -0.00142            -0.00165
  6.5579            -0.00143            -0.00176
  6.6198            -0.00142            -0.00187
  6.6817            -0.00140            -0.00198
  6.7435            -0.00138            -0.00209
  6.8054            -0.00137            -0.00218
  6.8673            -0.00135            -0.00226
  6.9292            -0.00135            -0.00231
  6.9910            -0.00134            -0.00234
  7.0529            -0.00133            -0.00233
  7.1148            -0.00132            -0.00228
  7.1766            -0.00130            -0.00219
  7.2385            -0.00128            -0.00204
  7.3004            -0.00124            -0.00184
  7.3622            -0.00119            -0.00157
  7.4241            -0.00113            -0.00125
  7.4860            -0.00107            -0.00089
  7.5478            -0.00101            -0.00052
  7.6097            -0.00094            -0.00020
  7.6716            -0.00087             0.00000
  7.7334            -0.00080             0.00006
  7.7953            -0.00073            -0.00002
  7.8572            -0.00067            -0.00022
  7.9190            -0.00060            -0.00044
  7.9809            -0.00053            -0.00061
  8.0428            -0.00047            -0.00067
  8.1046            -0.00041            -0.00059
  8.1665            -0.00035            -0.00040
  8.2284            -0.00029            -0.00015
  8.2902            -0.00024             0.00009
  8.3521            -0.00019             0.00028
  8.4140            -0.00016             0.00040
  8.4758            -0.00013             0.00046
  8.5377            -0.00011             0.00046
  8.5996            -0.00010             0.00043
  8.6614            -0.00010             0.00037
  8.7233            -0.00011             0.00029
  8.7852            -0.00011             0.00020
  8.8470            -0.00011             0.00010
  8.9089            -0.00011            -0.00001
  8.9708            -0.00010            -0.00012
  9.0326            -0.00009            -0.00021
  9.0945            -0.00008            -0.00028
  9.1564            -0.00007            -0.00032
  9.2182            -0.00006            -0.00035
  9.2801            -0.00005            -0.00036
  9.3420            -0.00005            -0.00037
  9.4038            -0.00005            -0.00036
  9.4657            -0.00005            -0.00034
  9.5276            -0.00004            -0.00029
  9.5895            -0.00004            -0.00023
  9.6513            -0.00003            -0.00016
  9.7132            -0.00002            -0.00011
  9.7751            -0.00001            -0.00008
  9.8369            -0.00000            -0.00010
  9.8988             0.00001            -0.00014
  9.9607             0.00001            -0.00020
 10.0225             0.00002            -0.00024
 10.0844             0.00003            -0.00025
 10.1463             0.00004            -0.00021
 10.2081             0.00004            -0.00012
 10.2700             0.00005             0.00001
 10.3319             0.00005             0.00016
 10.3937             0.00005             0.00032
 10.4556             0.00005             0.00047
 10.5175             0.00005             0.00058
 10.5793             0.00006             0.00066
 10.6412             0.00006             0.00068
 10.7031             0.00006             0.00065
 10.7649             0.00006             0.00059
 10.8268             0.00006             0.00051
 10.8887             0.00005             0.00040
 10.9505             0.00005             0.00029
 11.0124             0.00004             0.00018
 11.0743             0.00004             0.00006
 11.1361             0.00005            -0.00006
 11.1980             0.00006            -0.00016
 11.2599             0.00007            -0.00025
 11.3217             0.00008            -0.00030
 11.3836             0.00009            -0.00032
 11.4455             0.00010            -0.00030
 11.5073             0.00010            -0.00025
 11.5692             0.00010            -0.00019
 11.6311             0.00009            -0.00013
 11.6929             0.00008            -0.00012
 11.7548             0.00006            -0.00014
 11.8167             0.00004            -0.00020
 11.8785             0.00002            -0.00027
 11.9404             0.00000            -0.00032
 12.0023            -0.00002            -0.00031
 12.0641            -0.00004            -0.00023
 12.1260            -0.00006            -0.00009
 12.1879            -0.00007             0.00008
 12.2497            -0.00008             0.00026
 12.3116            -0.00009             0.00041
 12.3735            -0.00009             0.00051
 12.4354            -0.00009             0.00056
 12.4972            -0.00009             0.00055
 12.5591            -0.00009             0.00049
 12.6210            -0.00009             0.00039
 12.6828            -0.00009             0.00027
 12.7447            -0.00008             0.00012
 12.8066            -0.00008            -0.00003
 12.8684            -0.00007            -0.00017
 12.9303            -0.00007            -0.00029
 12.9922            -0.00006            -0.00039
 13.0540            -0.00006            -0.00046
 13.1159            -0.00006            -0.00050
 13.1778            -0.00005            -0.00051
 13.2396            -0.00006            -0.00051
 13.3015            -0.00006            -0.00048
 13.3634            -0.00006            -0.00044
 13.4252            -0.00006            -0.00038
 13.4871            -0.00007            -0.00029
 13.5490            -0.00007            -0.00019
 13.6108            -0.00006            -0.00010
 13.6727            -0.00006            -0.00003
 13.7346            -0.00005             0.00001
 13.7964            -0.00004            -0.00000
 13.8583            -0.00003            -0.00005
 13.9202            -0.00002            -0.00010
 13.9820            -0.00001            -0.00015
 14.0439             0.00000            -0.00017
 14.1058             0.00002            -0.00014
 14.1676             0.00003            -0.00007
 14.2295             0.00003             0.00004
 14.2914             0.00004             0.00017
 14.3532             0.00004             0.00031
 14.4151             0.00005             0.00042
 14.4770             0.00005             0.00051
 14.5388             0.00006             0.00056
 14.6007             0.00006             0.00057
 14.6626             0.00006             0.00054
 14.7244             0.00006             0.00049
 14.7863             0.00006             0.00041
 14.8482             0.00005             0.00032
 14.9100             0.00005             0.00023
 14.9719             0.00005             0.00012
 15.0338             0.00005             0.00002
 15.0957             0.00006            -0.00008
 15.1575             0.00006            -0.00018
 15.2194             0.00007            -0.00026
 15.2813             0.00009            -0.00031
 15.3431             0.00010            -0.00033
 15.4050             0.00010            -0.00031
 15.4669             0.00011            -0.00026
 15.5287             0.00011            -0.00017
 15.5906             0.00010            -0.00009
 15.6525             0.00009            -0.00004
 15.7143             0.00008            -0.00003
 15.7762             0.00006            -0.00006
 15.8381             0.00005            -0.00011
 15.8999             0.00003            -0.00016
 15.9618             0.00001            -0.00016
 16.0237            -0.00001            -0.00011
 16.0855            -0.00003            -0.00001
 16.1474            -0.00004             0.00013
 16.2093            -0.00005             0.00028
 16.2711            -0.00006             0.00041
 16.3330            -0.00006             0.00051
 16.3949            -0.00006             0.00055
 16.4567            -0.00006             0.00055
 16.5186            -0.00006             0.00049
 16.5805            -0.00006             0.00039
 16.6423            -0.00006             0.00027
 16.7042            -0.00005             0.00012
 16.7661            -0.00005            -0.00003
 16.8279            -0.00005            -0.00017
 16.8898            -0.00005            -0.00030
 16.9517            -0.00004            -0.00040
 17.0135            -0.00004            -0.00047
 17.0754            -0.00004            -0.00051
 17.1373            -0.00005            -0.00053
 17.1991            -0.00005            -0.00053
 17.2610            -0.00005            -0.00051
 17.3229            -0.00006            -0.00047
 17.3847            -0.00006            -0.00040
 17.4466            -0.00006            -0.00031
 17.5085            -0.00006            -0.00020
 17.5703            -0.00006            -0.00009
 17.6322            -0.00005             0.00000
 17.6941            -0.00005             0.00006
 17.7560            -0.00004             0.00007
 17.8178            -0.00002             0.00003
 17.8797            -0.00001            -0.00004
 17.9416             0.00000            -0.00010
 18.0034             0.00001            -0.00015
 18.0653             0.00002            -0.00014
 18.1272             0.00003            -0.00009
 18.1890             0.00004             0.00001
 18.2509             0.00004             0.00014
 18.3128             0.00005             0.00029
 18.3746             0.00005             0.00042
 18.4365             0.00005             0.00052
 18.4984             0.00006             0.00058
 18.5602             0.00006             0.00059
 18.6221             0.00006             0.00057
 18.6840             0.00006             0.00052
 18.7458             0.00005             0.00044
 18.8077             0.00005             0.00035
 18.8696             0.00004             0.00024
 18.9314             0.00004             0.00013
 18.9933             0.00004             0.00001
 19.0552             0.00004            -0.00011
 19.1170             0.00005            -0.00022
 19.1789             0.00007            -0.00031
 19.2408             0.00008            -0.00037
 19.3026             0.00009            -0.00039
 19.3645             0.00010            -0.00037
 19.4264             0.00011            -0.00030
 19.4882             0.00011            -0.00021
 19.5501             0.00010            -0.00012
 19.6120             0.00010            -0.00006
 19.6738             0.00008            -0.00005
 19.7357             0.00007            -0.00007
 19.7976             0.00005            -0.00012
 19.8594             0.00003            -0.00016
 19.9213             0.00001            -0.00016
 19.9832            -0.00001            -0.00010
 20.0450            -0.00003             0.00001
 20.1069            -0.00004             0.00016
 20.1688            -0.00006             0.00032
 20.2306            -0.00006             0.00046
 20.2925            -0.00007             0.00057
 20.3544            -0.00007             0.00061
 20.4162            -0.00007             0.00061
 20.4781            -0.00006             0.00054
 20.5400            -0.00006             0.00043
 20.6019            -0.00006             0.00030
 20.6637            -0.00005             0.00014
 20.7256            -0.00005            -0.00002
 20.7875            -0.00005            -0.00018
 20.8493            -0.00004            -0.00031
 20.9112            -0.00004            -0.00043
 20.9731            -0.00004            -0.00051
 21.0349            -0.00004            -0.00057
 21.0968            -0.00004            -0.00059
 21.1587            -0.00004            -0.00060
 21.2205            -0.00004            -0.00057
 21.2824            -0.00005            -0.00052
 21.3443            -0.00005            -0.00043
 21.4061            -0.00005            -0.00032
 21.4680            -0.00004            -0.00020
 21.5299            -0.00004            -0.00007
 21.5917            -0.00003             0.00002
 21.6536            -0.00002             0.00007
 21.7155            -0.00001             0.00008
 21.7773            -0.00000             0.00003
 21.8392             0.00001            -0.00003
 21.9011             0.00002            -0.00009
 21.9629             0.00003            -0.00012
 22.0248             0.00004            -0.00010
 22.0867             0.00005            -0.00002
 22.1485             0.00005             0.00010
 22.2104             0.00006             0.00026
 22.2723             0.00006             0.00041
 22.3341             0.00006             0.00055
 22.3960             0.00006             0.00064
 22.4579             0.00006             0.00069
 22.5197             0.00006             0.00069
 22.5816             0.00006             0.00065
 22.6435             0.00006             0.00058
 22.7053             0.00006             0.00048
 22.7672             0.00005             0.00036
 22.8291             0.00005             0.00023
 22.8909             0.00004             0.00008
 22.9528             0.00004            -0.00008
 23.0147             0.00005            -0.00023
 23.0765             0.00006            -0.00036
 23.1384             0.00007            -0.00046
 23.2003             0.00008            -0.00052
 23.2622             0.00010            -0.00052
 23.3240             0.00010            -0.00047
 23.3859             0.00011            -0.00038
 23.4478             0.00010            -0.00026
 23.5096             0.00010            -0.00015
 23.5715             0.00008            -0.00008
 23.6334             0.00007            -0.00005
 23.6952             0.00004            -0.00007
 23.7571             0.00002            -0.00010
 23.8190            -0.00000            -0.00013
 23.8808            -0.00002            -0.00012
 23.9427            -0.00005            -0.00006
 24.0046            -0.00006             0.00006
 24.0664            -0.00008             0.00023
 24.1283            -0.00009             0.00039
 24.1902            -0.00009             0.00054
 24.2520            -0.00009             0.00064
 24.3139            -0.00009             0.00067
 24.3758            -0.00008             0.00064
 24.4376            -0.00007             0.00055
 24.4995            -0.00006             0.00042
 24.5614            -0.00005             0.00025
 24.6232            -0.00005             0.00008
 24.6851            -0.00004            -0.00010
 24.7470            -0.00004            -0.00027
 24.8088            -0.00004            -0.00041
 24.8707            -0.00004            -0.00054
 24.9326            -0.00004            -0.00063
 24.9944            -0.00004            -0.00069
 25.0563            -0.00004            -0.00071
 25.1182            -0.00004            -0.00069
