#Distance(A)    Macroscopic-Average    Planar-Average
  0.0000             0.00003             0.00003
  0.0619             0.00003             0.00003
  0.1237             0.00003             0.00003
  0.1856             0.00003             0.00003
  0.2475             0.00003             0.00003
  0.3093             0.00003             0.00003
  0.3712             0.00003             0.00003
  0.4331             0.00003             0.00003
  0.4949             0.00003             0.00003
  0.5568             0.00003             0.00003
  0.6187             0.00003             0.00003
  0.6805             0.00003             0.00003
  0.7424             0.00003             0.00003
  0.8043             0.00003             0.00003
  0.8661             0.00003             0.00003
  0.9280             0.00003             0.00003
  0.9899             0.00003             0.00003
  1.0517             0.00003             0.00003
  1.1136             0.00002             0.00003
  1.1755             0.00002             0.00002
  1.2373             0.00002             0.00002
  1.2992             0.00002             0.00002
  1.3611             0.00002             0.00002
  1.4230             0.00002             0.00002
  1.4848             0.00002             0.00002
  1.5467             0.00002             0.00002
  1.6086             0.00002             0.00002
  1.6704             0.00002             0.00002
  1.7323             0.00002             0.00002
  1.7942             0.00002             0.00002
  1.8560             0.00001             0.00001
  1.9179             0.00001             0.00001
  1.9798             0.00001             0.00001
  2.0416             0.00001             0.00001
  2.1035             0.00001             0.00001
  2.1654             0.00001             0.00001
  2.2272             0.00001             0.00001
  2.2891             0.00001             0.00001
  2.3510             0.00001             0.00001
  2.4128             0.00000             0.00001
  2.4747             0.00000             0.00000
  2.5366             0.00000             0.00000
  2.5984             0.00000             0.00000
  2.6603            -0.00000             0.00000
  2.7222            -0.00000            -0.00000
  2.7840            -0.00000            -0.00000
  2.8459            -0.00000            -0.00000
  2.9078            -0.00001            -0.00000
  2.9696            -0.00001            -0.00001
  3.0315            -0.00001            -0.00001
  3.0934            -0.00001            -0.00001
  3.1552            -0.00001            -0.00001
  3.2171            -0.00001            -0.00001
  3.2790            -0.00002            -0.00001
  3.3408            -0.00002            -0.00001
  3.4027            -0.00002            -0.00001
  3.4646            -0.00002            -0.00002
  3.5264            -0.00003            -0.00002
  3.5883            -0.00003            -0.00002
  3.6502            -0.00003            -0.00002
  3.7120            -0.00004            -0.00002
  3.7739            -0.00004            -0.00003
  3.8358            -0.00005            -0.00003
  3.8976            -0.00005            -0.00003
  3.9595            -0.00006            -0.00003
  4.0214            -0.00006            -0.00004
  4.0832            -0.00007            -0.00004
  4.1451            -0.00008            -0.00005
  4.2070            -0.00009            -0.00005
  4.2689            -0.00010            -0.00006
  4.3307            -0.00012            -0.00006
  4.3926            -0.00013            -0.00007
  4.4545            -0.00015            -0.00008
  4.5163            -0.00017            -0.00009
  4.5782            -0.00019            -0.00010
  4.6401            -0.00021            -0.00011
  4.7019            -0.00024            -0.00013
  4.7638            -0.00027            -0.00014
  4.8257            -0.00031            -0.00016
  4.8875            -0.00035            -0.00019
  4.9494            -0.00039            -0.00021
  5.0113            -0.00044            -0.00024
  5.0731            -0.00050            -0.00027
  5.1350            -0.00056            -0.00031
  5.1969            -0.00062            -0.00035
  5.2587            -0.00070            -0.00040
  5.3206            -0.00078            -0.00045
  5.3825            -0.00087            -0.00051
  5.4443            -0.00097            -0.00058
  5.5062            -0.00107            -0.00065
  5.5681            -0.00119            -0.00074
  5.6299            -0.00131            -0.00083
  5.6918            -0.00145            -0.00094
  5.7537            -0.00159            -0.00105
  5.8155            -0.00173            -0.00118
  5.8774            -0.00189            -0.00133
  5.9393            -0.00205            -0.00149
  6.0011            -0.00221            -0.00166
  6.0630            -0.00238            -0.00185
  6.1249            -0.00254            -0.00205
  6.1867            -0.00270            -0.00227
  6.2486            -0.00286            -0.00251
  6.3105            -0.00299            -0.00276
  6.3723            -0.00311            -0.00303
  6.4342            -0.00321            -0.00331
  6.4961            -0.00328            -0.00360
  6.5579            -0.00332            -0.00389
  6.6198            -0.00333            -0.00419
  6.6817            -0.00332            -0.00448
  6.7435            -0.00329            -0.00476
  6.8054            -0.00326            -0.00503
  6.8673            -0.00324            -0.00527
  6.9292            -0.00322            -0.00547
  6.9910            -0.00321            -0.00563
  7.0529            -0.00320            -0.00571
  7.1148            -0.00319            -0.00571
  7.1766            -0.00316            -0.00559
  7.2385            -0.00311            -0.00535
  7.3004            -0.00303            -0.00495
  7.3622            -0.00293            -0.00439
  7.4241            -0.00282            -0.00368
  7.4860            -0.00269            -0.00283
  7.5478            -0.00255            -0.00193
  7.6097            -0.00240            -0.00110
  7.6716            -0.00224            -0.00045
  7.7334            -0.00209            -0.00011
  7.7953            -0.00193            -0.00010
  7.8572            -0.00178            -0.00037
  7.9190            -0.00162            -0.00080
  7.9809            -0.00147            -0.00119
  8.0428            -0.00133            -0.00141
  8.1046            -0.00118            -0.00136
  8.1665            -0.00104            -0.00105
  8.2284            -0.00091            -0.00056
  8.2902            -0.00078            -0.00002
  8.3521            -0.00067             0.00046
  8.4140            -0.00056             0.00082
  8.4758            -0.00047             0.00102
  8.5377            -0.00040             0.00108
  8.5996            -0.00035             0.00101
  8.6614            -0.00031             0.00086
  8.7233            -0.00030             0.00064
  8.7852            -0.00029             0.00038
  8.8470            -0.00030             0.00009
  8.9089            -0.00030            -0.00020
  8.9708            -0.00030            -0.00048
  9.0326            -0.00028            -0.00074
  9.0945            -0.00025            -0.00096
  9.1564            -0.00022            -0.00112
  9.2182            -0.00019            -0.00121
  9.2801            -0.00015            -0.00121
  9.3420            -0.00012            -0.00113
  9.4038            -0.00010            -0.00095
  9.4657            -0.00007            -0.00070
  9.5276            -0.00005            -0.00042
  9.5895            -0.00002            -0.00015
  9.6513             0.00000             0.00002
  9.7132             0.00003             0.00007
  9.7751             0.00006            -0.00002
  9.8369             0.00009            -0.00022
  9.8988             0.00012            -0.00045
  9.9607             0.00014            -0.00062
 10.0225             0.00017            -0.00067
 10.0844             0.00018            -0.00055
 10.1463             0.00019            -0.00028
 10.2081             0.00019             0.00010
 10.2700             0.00019             0.00053
 10.3319             0.00018             0.00095
 10.3937             0.00017             0.00132
 10.4556             0.00015             0.00161
 10.5175             0.00014             0.00181
 10.5793             0.00013             0.00191
 10.6412             0.00012             0.00191
 10.7031             0.00011             0.00181
 10.7649             0.00011             0.00163
 10.8268             0.00011             0.00136
 10.8887             0.00012             0.00102
 10.9505             0.00013             0.00063
 11.0124             0.00014             0.00020
 11.0743             0.00016            -0.00025
 11.1361             0.00018            -0.00067
 11.1980             0.00020            -0.00105
 11.2599             0.00022            -0.00134
 11.3217             0.00024            -0.00151
 11.3836             0.00025            -0.00155
 11.4455             0.00025            -0.00142
 11.5073             0.00025            -0.00117
 11.5692             0.00023            -0.00082
 11.6311             0.00020            -0.00045
 11.6929             0.00016            -0.00015
 11.7548             0.00011             0.00003
 11.8167             0.00006             0.00006
 11.8785            -0.00000            -0.00001
 11.9404            -0.00006            -0.00013
 12.0023            -0.00012            -0.00020
 12.0641            -0.00017            -0.00014
 12.1260            -0.00021             0.00007
 12.1879            -0.00024             0.00039
 12.2497            -0.00026             0.00078
 12.3116            -0.00027             0.00113
 12.3735            -0.00026             0.00138
 12.4354            -0.00025             0.00149
 12.4972            -0.00022             0.00144
 12.5591            -0.00020             0.00126
 12.6210            -0.00017             0.00097
 12.6828            -0.00015             0.00060
 12.7447            -0.00014             0.00020
 12.8066            -0.00014            -0.00021
 12.8684            -0.00014            -0.00061
 12.9303            -0.00014            -0.00096
 12.9922            -0.00015            -0.00126
 13.0540            -0.00015            -0.00149
 13.1159            -0.00015            -0.00164
 13.1778            -0.00015            -0.00171
 13.2396            -0.00015            -0.00168
 13.3015            -0.00015            -0.00156
 13.3634            -0.00015            -0.00133
 13.4252            -0.00015            -0.00103
 13.4871            -0.00014            -0.00067
 13.5490            -0.00013            -0.00030
 13.6108            -0.00012             0.00000
 13.6727            -0.00010             0.00021
 13.7346            -0.00007             0.00027
 13.7964            -0.00004             0.00020
 13.8583            -0.00001             0.00003
 13.9202             0.00003            -0.00016
 13.9820             0.00006            -0.00029
 14.0439             0.00009            -0.00031
 14.1058             0.00012            -0.00019
 14.1676             0.00014             0.00006
 14.2295             0.00015             0.00040
 14.2914             0.00015             0.00078
 14.3532             0.00015             0.00114
 14.4151             0.00015             0.00143
 14.4770             0.00015             0.00164
 14.5388             0.00015             0.00175
 14.6007             0.00015             0.00176
 14.6626             0.00014             0.00167
 14.7244             0.00014             0.00150
 14.7863             0.00014             0.00125
 14.8482             0.00013             0.00093
 14.9100             0.00013             0.00056
 14.9719             0.00013             0.00015
 15.0338             0.00014            -0.00028
 15.0957             0.00015            -0.00069
 15.1575             0.00017            -0.00105
 15.2194             0.00019            -0.00133
 15.2813             0.00022            -0.00149
 15.3431             0.00024            -0.00151
 15.4050             0.00025            -0.00138
 15.4669             0.00025            -0.00111
 15.5287             0.00024            -0.00075
 15.5906             0.00021            -0.00038
 15.6525             0.00018            -0.00008
 15.7143             0.00013             0.00010
 15.7762             0.00008             0.00013
 15.8381             0.00002             0.00005
 15.8999            -0.00004            -0.00007
 15.9618            -0.00010            -0.00013
 16.0237            -0.00015            -0.00007
 16.0855            -0.00019             0.00014
 16.1474            -0.00022             0.00046
 16.2093            -0.00024             0.00084
 16.2711            -0.00025             0.00118
 16.3330            -0.00025             0.00141
 16.3949            -0.00023             0.00151
 16.4567            -0.00021             0.00145
 16.5186            -0.00019             0.00126
 16.5805            -0.00016             0.00095
 16.6423            -0.00014             0.00058
 16.7042            -0.00013             0.00017
 16.7661            -0.00013            -0.00025
 16.8279            -0.00013            -0.00066
 16.8898            -0.00014            -0.00102
 16.9517            -0.00014            -0.00132
 17.0135            -0.00015            -0.00155
 17.0754            -0.00015            -0.00170
 17.1373            -0.00015            -0.00176
 17.1991            -0.00015            -0.00172
 17.2610            -0.00016            -0.00159
 17.3229            -0.00016            -0.00135
 17.3847            -0.00016            -0.00104
 17.4466            -0.00015            -0.00067
 17.5085            -0.00014            -0.00030
 17.5703            -0.00013             0.00002
 17.6322            -0.00011             0.00023
 17.6941            -0.00008             0.00030
 17.7560            -0.00005             0.00023
 17.8178            -0.00002             0.00007
 17.8797             0.00002            -0.00012
 17.9416             0.00005            -0.00026
 18.0034             0.00008            -0.00028
 18.0653             0.00011            -0.00017
 18.1272             0.00013             0.00008
 18.1890             0.00014             0.00042
 18.2509             0.00015             0.00079
 18.3128             0.00015             0.00114
 18.3746             0.00015             0.00142
 18.4365             0.00015             0.00162
 18.4984             0.00015             0.00172
 18.5602             0.00015             0.00173
 18.6221             0.00014             0.00164
 18.6840             0.00014             0.00146
 18.7458             0.00014             0.00120
 18.8077             0.00013             0.00088
 18.8696             0.00013             0.00051
 18.9314             0.00013             0.00010
 18.9933             0.00013            -0.00032
 19.0552             0.00015            -0.00072
 19.1170             0.00017            -0.00107
 19.1789             0.00019            -0.00134
 19.2408             0.00021            -0.00149
 19.3026             0.00023            -0.00150
 19.3645             0.00024            -0.00135
 19.4264             0.00025            -0.00107
 19.4882             0.00023            -0.00071
 19.5501             0.00021            -0.00034
 19.6120             0.00017            -0.00004
 19.6738             0.00013             0.00012
 19.7357             0.00007             0.00014
 19.7976             0.00002             0.00005
 19.8594            -0.00004            -0.00006
 19.9213            -0.00010            -0.00012
 19.9832            -0.00015            -0.00005
 20.0450            -0.00019             0.00017
 20.1069            -0.00022             0.00050
 20.1688            -0.00024             0.00087
 20.2306            -0.00024             0.00120
 20.2925            -0.00024             0.00142
 20.3544            -0.00022             0.00150
 20.4162            -0.00020             0.00143
 20.4781            -0.00018             0.00123
 20.5400            -0.00016             0.00092
 20.6019            -0.00014             0.00054
 20.6637            -0.00013             0.00013
 20.7256            -0.00013            -0.00029
 20.7875            -0.00013            -0.00068
 20.8493            -0.00013            -0.00104
 20.9112            -0.00014            -0.00133
 20.9731            -0.00015            -0.00155
 21.0349            -0.00015            -0.00169
 21.0968            -0.00015            -0.00174
 21.1587            -0.00015            -0.00170
 21.2205            -0.00015            -0.00156
 21.2824            -0.00016            -0.00132
 21.3443            -0.00016            -0.00100
 21.4061            -0.00015            -0.00064
 21.4680            -0.00014            -0.00027
 21.5299            -0.00013             0.00003
 21.5917            -0.00011             0.00023
 21.6536            -0.00008             0.00029
 21.7155            -0.00005             0.00021
 21.7773            -0.00001             0.00004
 21.8392             0.00002            -0.00014
 21.9011             0.00005            -0.00027
 21.9629             0.00008            -0.00028
 22.0248             0.00011            -0.00015
 22.0867             0.00013             0.00010
 22.1485             0.00014             0.00044
 22.2104             0.00014             0.00081
 22.2723             0.00015             0.00116
 22.3341             0.00015             0.00144
 22.3960             0.00015             0.00163
 22.4579             0.00014             0.00172
 22.5197             0.00014             0.00172
 22.5816             0.00014             0.00162
 22.6435             0.00014             0.00143
 22.7053             0.00013             0.00117
 22.7672             0.00013             0.00085
 22.8291             0.00012             0.00047
 22.8909             0.00012             0.00006
 22.9528             0.00013            -0.00035
 23.0147             0.00014            -0.00075
 23.0765             0.00016            -0.00109
 23.1384             0.00019            -0.00135
 23.2003             0.00021            -0.00149
 23.2622             0.00023            -0.00148
 23.3240             0.00024            -0.00133
 23.3859             0.00024            -0.00104
 23.4478             0.00023            -0.00068
 23.5096             0.00020            -0.00032
 23.5715             0.00017            -0.00004
 23.6334             0.00012             0.00011
 23.6952             0.00007             0.00011
 23.7571             0.00001             0.00002
 23.8190            -0.00005            -0.00009
 23.8808            -0.00010            -0.00013
 23.9427            -0.00015            -0.00004
 24.0046            -0.00019             0.00019
 24.0664            -0.00022             0.00052
 24.1283            -0.00024             0.00090
 24.1902            -0.00024             0.00122
 24.2520            -0.00024             0.00144
 24.3139            -0.00022             0.00151
 24.3758            -0.00020             0.00143
 24.4376            -0.00017             0.00121
 24.4995            -0.00015             0.00090
 24.5614            -0.00014             0.00052
 24.6232            -0.00013             0.00011
 24.6851            -0.00012            -0.00031
 24.7470            -0.00013            -0.00070
 24.8088            -0.00013            -0.00105
 24.8707            -0.00014            -0.00134
 24.9326            -0.00014            -0.00155
 24.9944            -0.00015            -0.00168
 25.0563            -0.00015            -0.00173
 25.1182            -0.00015            -0.00168
