#Distance(A)    Macroscopic-Average    Planar-Average
  0.0000            -0.00001            -0.00001
  0.0619            -0.00001            -0.00001
  0.1237            -0.00001            -0.00001
  0.1856            -0.00001            -0.00001
  0.2475            -0.00001            -0.00001
  0.3093            -0.00001            -0.00001
  0.3712            -0.00001            -0.00001
  0.4331            -0.00001            -0.00001
  0.4949            -0.00000            -0.00001
  0.5568            -0.00000            -0.00001
  0.6187            -0.00000            -0.00000
  0.6805            -0.00000            -0.00000
  0.7424            -0.00000            -0.00000
  0.8043            -0.00000            -0.00000
  0.8661            -0.00000            -0.00000
  0.9280            -0.00000            -0.00000
  0.9899            -0.00000            -0.00000
  1.0517            -0.00000            -0.00000
  1.1136            -0.00000            -0.00000
  1.1755            -0.00000            -0.00000
  1.2373            -0.00000            -0.00000
  1.2992            -0.00000            -0.00000
  1.3611            -0.00000            -0.00000
  1.4230             0.00000            -0.00000
  1.4848             0.00000             0.00000
  1.5467             0.00000             0.00000
  1.6086             0.00000             0.00000
  1.6704             0.00000             0.00000
  1.7323             0.00000             0.00000
  1.7942             0.00000             0.00000
  1.8560             0.00000             0.00000
  1.9179             0.00000             0.00000
  1.9798             0.00000             0.00000
  2.0416             0.00000             0.00000
  2.1035             0.00001             0.00000
  2.1654             0.00001             0.00001
  2.2272             0.00001             0.00001
  2.2891             0.00001             0.00001
  2.3510             0.00001             0.00001
  2.4128             0.00001             0.00001
  2.4747             0.00001             0.00001
  2.5366             0.00001             0.00001
  2.5984             0.00001             0.00001
  2.6603             0.00001             0.00001
  2.7222             0.00001             0.00001
  2.7840             0.00001             0.00001
  2.8459             0.00001             0.00001
  2.9078             0.00001             0.00001
  2.9696             0.00001             0.00001
  3.0315             0.00001             0.00001
  3.0934             0.00001             0.00001
  3.1552             0.00001             0.00001
  3.2171             0.00001             0.00001
  3.2790             0.00001             0.00001
  3.3408             0.00001             0.00001
  3.4027             0.00001             0.00001
  3.4646             0.00001             0.00001
  3.5264             0.00001             0.00001
  3.5883             0.00001             0.00001
  3.6502             0.00001             0.00001
  3.7120             0.00000             0.00001
  3.7739             0.00000             0.00001
  3.8358             0.00000             0.00001
  3.8976            -0.00000             0.00001
  3.9595            -0.00001             0.00001
  4.0214            -0.00001             0.00001
  4.0832            -0.00001             0.00001
  4.1451            -0.00002             0.00000
  4.2070            -0.00002             0.00000
  4.2689            -0.00003            -0.00000
  4.3307            -0.00004            -0.00000
  4.3926            -0.00005            -0.00001
  4.4545            -0.00006            -0.00001
  4.5163            -0.00007            -0.00002
  4.5782            -0.00008            -0.00003
  4.6401            -0.00010            -0.00003
  4.7019            -0.00011            -0.00004
  4.7638            -0.00013            -0.00005
  4.8257            -0.00016            -0.00006
  4.8875            -0.00018            -0.00008
  4.9494            -0.00021            -0.00009
  5.0113            -0.00024            -0.00011
  5.0731            -0.00027            -0.00013
  5.1350            -0.00031            -0.00015
  5.1969            -0.00035            -0.00018
  5.2587            -0.00040            -0.00021
  5.3206            -0.00045            -0.00024
  5.3825            -0.00050            -0.00028
  5.4443            -0.00056            -0.00032
  5.5062            -0.00063            -0.00037
  5.5681            -0.00070            -0.00042
  5.6299            -0.00078            -0.00048
  5.6918            -0.00086            -0.00055
  5.7537            -0.00095            -0.00062
  5.8155            -0.00104            -0.00070
  5.8774            -0.00113            -0.00079
  5.9393            -0.00123            -0.00089
  6.0011            -0.00133            -0.00100
  6.0630            -0.00143            -0.00111
  6.1249            -0.00153            -0.00124
  6.1867            -0.00163            -0.00137
  6.2486            -0.00172            -0.00152
  6.3105            -0.00181            -0.00168
  6.3723            -0.00188            -0.00184
  6.4342            -0.00194            -0.00201
  6.4961            -0.00198            -0.00219
  6.5579            -0.00200            -0.00237
  6.6198            -0.00201            -0.00255
  6.6817            -0.00200            -0.00273
  6.7435            -0.00199            -0.00290
  6.8054            -0.00198            -0.00306
  6.8673            -0.00196            -0.00320
  6.9292            -0.00196            -0.00332
  6.9910            -0.00196            -0.00341
  7.0529            -0.00195            -0.00346
  7.1148            -0.00195            -0.00345
  7.1766            -0.00193            -0.00337
  7.2385            -0.00190            -0.00321
  7.3004            -0.00185            -0.00296
  7.3622            -0.00179            -0.00262
  7.4241            -0.00172            -0.00219
  7.4860            -0.00164            -0.00169
  7.5478            -0.00155            -0.00116
  7.6097            -0.00146            -0.00067
  7.6716            -0.00137            -0.00030
  7.7334            -0.00127            -0.00011
  7.7953            -0.00118            -0.00013
  7.8572            -0.00108            -0.00032
  7.9190            -0.00099            -0.00058
  7.9809            -0.00089            -0.00082
  8.0428            -0.00080            -0.00094
  8.1046            -0.00071            -0.00089
  8.1665            -0.00063            -0.00068
  8.2284            -0.00055            -0.00036
  8.2902            -0.00047            -0.00001
  8.3521            -0.00040             0.00030
  8.4140            -0.00034             0.00053
  8.4758            -0.00029             0.00066
  8.5377            -0.00025             0.00070
  8.5996            -0.00021             0.00067
  8.6614            -0.00019             0.00057
  8.7233            -0.00018             0.00044
  8.7852            -0.00018             0.00027
  8.8470            -0.00018             0.00010
  8.9089            -0.00018            -0.00009
  8.9708            -0.00017            -0.00026
  9.0326            -0.00016            -0.00042
  9.0945            -0.00015            -0.00056
  9.1564            -0.00013            -0.00065
  9.2182            -0.00010            -0.00071
  9.2801            -0.00009            -0.00072
  9.3420            -0.00007            -0.00067
  9.4038            -0.00005            -0.00058
  9.4657            -0.00004            -0.00044
  9.5276            -0.00003            -0.00027
  9.5895            -0.00001            -0.00012
  9.6513             0.00000            -0.00001
  9.7132             0.00002             0.00003
  9.7751             0.00004            -0.00002
  9.8369             0.00006            -0.00014
  9.8988             0.00007            -0.00027
  9.9607             0.00009            -0.00039
 10.0225             0.00010            -0.00043
 10.0844             0.00011            -0.00037
 10.1463             0.00012            -0.00022
 10.2081             0.00012             0.00000
 10.2700             0.00012             0.00027
 10.3319             0.00011             0.00054
 10.3937             0.00011             0.00078
 10.4556             0.00010             0.00098
 10.5175             0.00009             0.00112
 10.5793             0.00008             0.00119
 10.6412             0.00008             0.00120
 10.7031             0.00008             0.00114
 10.7649             0.00008             0.00102
 10.8268             0.00008             0.00086
 10.8887             0.00008             0.00066
 10.9505             0.00008             0.00042
 11.0124             0.00009             0.00016
 11.0743             0.00010            -0.00010
 11.1361             0.00011            -0.00036
 11.1980             0.00012            -0.00059
 11.2599             0.00014            -0.00077
 11.3217             0.00015            -0.00088
 11.3836             0.00016            -0.00090
 11.4455             0.00017            -0.00083
 11.5073             0.00017            -0.00068
 11.5692             0.00016            -0.00048
 11.6311             0.00014            -0.00027
 11.6929             0.00012            -0.00011
 11.7548             0.00009            -0.00002
 11.8167             0.00005            -0.00001
 11.8785             0.00002            -0.00007
 11.9404            -0.00002            -0.00014
 12.0023            -0.00006            -0.00017
 12.0641            -0.00009            -0.00012
 12.1260            -0.00012             0.00003
 12.1879            -0.00014             0.00025
 12.2497            -0.00016             0.00050
 12.3116            -0.00016             0.00072
 12.3735            -0.00016             0.00088
 12.4354            -0.00016             0.00095
 12.4972            -0.00014             0.00093
 12.5591            -0.00013             0.00081
 12.6210            -0.00012             0.00063
 12.6828            -0.00010             0.00040
 12.7447            -0.00010             0.00015
 12.8066            -0.00009            -0.00012
 12.8684            -0.00009            -0.00037
 12.9303            -0.00009            -0.00060
 12.9922            -0.00009            -0.00079
 13.0540            -0.00009            -0.00094
 13.1159            -0.00010            -0.00103
 13.1778            -0.00010            -0.00108
 13.2396            -0.00010            -0.00106
 13.3015            -0.00010            -0.00099
 13.3634            -0.00010            -0.00085
 13.4252            -0.00010            -0.00067
 13.4871            -0.00010            -0.00045
 13.5490            -0.00010            -0.00022
 13.6108            -0.00009            -0.00002
 13.6727            -0.00008             0.00011
 13.7346            -0.00006             0.00016
 13.7964            -0.00004             0.00013
 13.8583            -0.00002             0.00003
 13.9202             0.00000            -0.00010
 13.9820             0.00002            -0.00019
 14.0439             0.00004            -0.00022
 14.1058             0.00006            -0.00016
 14.1676             0.00007            -0.00001
 14.2295             0.00008             0.00020
 14.2914             0.00008             0.00044
 14.3532             0.00009             0.00067
 14.4151             0.00009             0.00086
 14.4770             0.00009             0.00100
 14.5388             0.00009             0.00107
 14.6007             0.00009             0.00108
 14.6626             0.00009             0.00103
 14.7244             0.00009             0.00092
 14.7863             0.00008             0.00077
 14.8482             0.00008             0.00058
 14.9100             0.00008             0.00035
 14.9719             0.00008             0.00010
 15.0338             0.00008            -0.00015
 15.0957             0.00009            -0.00040
 15.1575             0.00010            -0.00062
 15.2194             0.00012            -0.00079
 15.2813             0.00014            -0.00089
 15.3431             0.00015            -0.00090
 15.4050             0.00016            -0.00081
 15.4669             0.00016            -0.00065
 15.5287             0.00016            -0.00043
 15.5906             0.00015            -0.00021
 15.6525             0.00013            -0.00004
 15.7143             0.00010             0.00005
 15.7762             0.00007             0.00005
 15.8381             0.00003            -0.00001
 15.8999            -0.00001            -0.00008
 15.9618            -0.00004            -0.00011
 16.0237            -0.00007            -0.00006
 16.0855            -0.00010             0.00009
 16.1474            -0.00012             0.00031
 16.2093            -0.00014             0.00055
 16.2711            -0.00014             0.00077
 16.3330            -0.00014             0.00092
 16.3949            -0.00014             0.00098
 16.4567            -0.00012             0.00094
 16.5186            -0.00011             0.00082
 16.5805            -0.00010             0.00063
 16.6423            -0.00009             0.00039
 16.7042            -0.00008             0.00013
 16.7661            -0.00008            -0.00014
 16.8279            -0.00008            -0.00040
 16.8898            -0.00008            -0.00063
 16.9517            -0.00008            -0.00082
 17.0135            -0.00009            -0.00097
 17.0754            -0.00009            -0.00106
 17.1373            -0.00009            -0.00110
 17.1991            -0.00009            -0.00108
 17.2610            -0.00010            -0.00100
 17.3229            -0.00010            -0.00086
 17.3847            -0.00010            -0.00067
 17.4466            -0.00010            -0.00045
 17.5085            -0.00010            -0.00022
 17.5703            -0.00009            -0.00002
 17.6322            -0.00008             0.00012
 17.6941            -0.00006             0.00017
 17.7560            -0.00004             0.00014
 17.8178            -0.00002             0.00004
 17.8797            -0.00000            -0.00008
 17.9416             0.00002            -0.00017
 18.0034             0.00004            -0.00019
 18.0653             0.00006            -0.00013
 18.1272             0.00007             0.00002
 18.1890             0.00008             0.00023
 18.2509             0.00008             0.00046
 18.3128             0.00009             0.00069
 18.3746             0.00009             0.00087
 18.4365             0.00009             0.00100
 18.4984             0.00009             0.00107
 18.5602             0.00009             0.00107
 18.6221             0.00009             0.00101
 18.6840             0.00009             0.00090
 18.7458             0.00009             0.00074
 18.8077             0.00008             0.00054
 18.8696             0.00008             0.00032
 18.9314             0.00008             0.00007
 18.9933             0.00008            -0.00018
 19.0552             0.00009            -0.00043
 19.1170             0.00010            -0.00064
 19.1789             0.00012            -0.00080
 19.2408             0.00014            -0.00089
 19.3026             0.00015            -0.00089
 19.3645             0.00016            -0.00080
 19.4264             0.00016            -0.00062
 19.4882             0.00015            -0.00040
 19.5501             0.00014            -0.00018
 19.6120             0.00012            -0.00002
 19.6738             0.00009             0.00007
 19.7357             0.00006             0.00007
 19.7976             0.00002             0.00000
 19.8594            -0.00001            -0.00007
 19.9213            -0.00005            -0.00010
 19.9832            -0.00008            -0.00005
 20.0450            -0.00011             0.00010
 20.1069            -0.00013             0.00031
 20.1688            -0.00014             0.00055
 20.2306            -0.00015             0.00076
 20.2925            -0.00014             0.00090
 20.3544            -0.00014             0.00095
 20.4162            -0.00012             0.00091
 20.4781            -0.00011             0.00078
 20.5400            -0.00010             0.00059
 20.6019            -0.00009             0.00035
 20.6637            -0.00008             0.00009
 20.7256            -0.00008            -0.00017
 20.7875            -0.00008            -0.00042
 20.8493            -0.00009            -0.00064
 20.9112            -0.00009            -0.00083
 20.9731            -0.00009            -0.00097
 21.0349            -0.00009            -0.00105
 21.0968            -0.00009            -0.00109
 21.1587            -0.00010            -0.00106
 21.2205            -0.00010            -0.00097
 21.2824            -0.00010            -0.00083
 21.3443            -0.00010            -0.00064
 21.4061            -0.00010            -0.00041
 21.4680            -0.00009            -0.00019
 21.5299            -0.00009             0.00000
 21.5917            -0.00007             0.00013
 21.6536            -0.00006             0.00017
 21.7155            -0.00004             0.00013
 21.7773            -0.00002             0.00003
 21.8392             0.00000            -0.00009
 21.9011             0.00002            -0.00017
 21.9629             0.00004            -0.00019
 22.0248             0.00006            -0.00011
 22.0867             0.00007             0.00004
 22.1485             0.00008             0.00025
 22.2104             0.00008             0.00049
 22.2723             0.00009             0.00070
 22.3341             0.00009             0.00088
 22.3960             0.00009             0.00100
 22.4579             0.00009             0.00106
 22.5197             0.00009             0.00105
 22.5816             0.00009             0.00099
 22.6435             0.00009             0.00088
 22.7053             0.00008             0.00072
 22.7672             0.00008             0.00052
 22.8291             0.00008             0.00029
 22.8909             0.00008             0.00004
 22.9528             0.00008            -0.00021
 23.0147             0.00009            -0.00045
 23.0765             0.00010            -0.00066
 23.1384             0.00012            -0.00081
 23.2003             0.00013            -0.00089
 23.2622             0.00015            -0.00088
 23.3240             0.00015            -0.00078
 23.3859             0.00015            -0.00060
 23.4478             0.00015            -0.00039
 23.5096             0.00013            -0.00017
 23.5715             0.00011            -0.00001
 23.6334             0.00008             0.00007
 23.6952             0.00005             0.00006
 23.7571             0.00001            -0.00001
 23.8190            -0.00002            -0.00008
 23.8808            -0.00006            -0.00010
 23.9427            -0.00009            -0.00004
 24.0046            -0.00011             0.00011
 24.0664            -0.00013             0.00033
 24.1283            -0.00014             0.00056
 24.1902            -0.00015             0.00076
 24.2520            -0.00014             0.00090
 24.3139            -0.00014             0.00094
 24.3758            -0.00012             0.00088
 24.4376            -0.00011             0.00075
 24.4995            -0.00010             0.00055
 24.5614            -0.00009             0.00032
 24.6232            -0.00008             0.00006
 24.6851            -0.00008            -0.00019
 24.7470            -0.00008            -0.00044
 24.8088            -0.00009            -0.00065
 24.8707            -0.00009            -0.00083
 24.9326            -0.00009            -0.00096
 24.9944            -0.00009            -0.00105
 25.0563            -0.00009            -0.00107
 25.1182            -0.00010            -0.00104
