#Distance(A)    Macroscopic-Average    Planar-Average
  0.0000            -0.00002            -0.00002
  0.0626            -0.00002            -0.00002
  0.1253            -0.00001            -0.00001
  0.1879            -0.00001            -0.00001
  0.2506            -0.00001            -0.00001
  0.3132            -0.00000            -0.00001
  0.3758            -0.00000            -0.00000
  0.4385             0.00000            -0.00000
  0.5011             0.00001             0.00000
  0.5637             0.00001             0.00001
  0.6264             0.00001             0.00001
  0.6890             0.00002             0.00001
  0.7517             0.00002             0.00002
  0.8143             0.00002             0.00002
  0.8769             0.00003             0.00002
  0.9396             0.00003             0.00003
  1.0022             0.00003             0.00003
  1.0648             0.00004             0.00004
  1.1275             0.00004             0.00004
  1.1901             0.00005             0.00005
  1.2528             0.00005             0.00005
  1.3154             0.00005             0.00005
  1.3780             0.00006             0.00005
  1.4407             0.00006             0.00006
  1.5033             0.00006             0.00007
  1.5659             0.00007             0.00007
  1.6286             0.00007             0.00007
  1.6912             0.00008             0.00008
  1.7539             0.00008             0.00008
  1.8165             0.00008             0.00008
  1.8791             0.00009             0.00009
  1.9418             0.00009             0.00009
  2.0044             0.00010             0.00010
  2.0670             0.00010             0.00010
  2.1297             0.00010             0.00011
  2.1923             0.00011             0.00011
  2.2550             0.00011             0.00011
  2.3176             0.00011             0.00011
  2.3802             0.00012             0.00012
  2.4429             0.00012             0.00012
  2.5055             0.00012             0.00013
  2.5682             0.00013             0.00013
  2.6308             0.00013             0.00014
  2.6934             0.00013             0.00014
  2.7561             0.00014             0.00014
  2.8187             0.00014             0.00014
  2.8813             0.00014             0.00014
  2.9440             0.00014             0.00015
  3.0066             0.00015             0.00015
  3.0693             0.00015             0.00016
  3.1319             0.00015             0.00016
  3.1945             0.00015             0.00016
  3.2572             0.00015             0.00016
  3.3198             0.00015             0.00016
  3.3824             0.00016             0.00016
  3.4451             0.00016             0.00017
  3.5077             0.00016             0.00017
  3.5704             0.00016             0.00017
  3.6330             0.00016             0.00017
  3.6956             0.00016             0.00017
  3.7583             0.00016             0.00017
  3.8209             0.00016             0.00017
  3.8835             0.00015             0.00017
  3.9462             0.00015             0.00017
  4.0088             0.00015             0.00017
  4.0715             0.00015             0.00017
  4.1341             0.00014             0.00017
  4.1967             0.00014             0.00017
  4.2594             0.00013             0.00016
  4.3220             0.00013             0.00016
  4.3846             0.00012             0.00015
  4.4473             0.00011             0.00015
  4.5099             0.00010             0.00015
  4.5726             0.00009             0.00014
  4.6352             0.00007             0.00013
  4.6978             0.00006             0.00012
  4.7605             0.00004             0.00011
  4.8231             0.00002             0.00010
  4.8858             0.00000             0.00009
  4.9484            -0.00002             0.00008
  5.0110            -0.00005             0.00006
  5.0737            -0.00008             0.00005
  5.1363            -0.00011             0.00003
  5.1989            -0.00015             0.00000
  5.2616            -0.00020            -0.00002
  5.3242            -0.00024            -0.00005
  5.3869            -0.00030            -0.00009
  5.4495            -0.00036            -0.00012
  5.5121            -0.00042            -0.00016
  5.5748            -0.00049            -0.00021
  5.6374            -0.00057            -0.00026
  5.7000            -0.00066            -0.00032
  5.7627            -0.00076            -0.00038
  5.8253            -0.00086            -0.00046
  5.8880            -0.00098            -0.00054
  5.9506            -0.00110            -0.00063
  6.0132            -0.00123            -0.00073
  6.0759            -0.00138            -0.00084
  6.1385            -0.00153            -0.00096
  6.2011            -0.00169            -0.00110
  6.2638            -0.00186            -0.00125
  6.3264            -0.00203            -0.00142
  6.3891            -0.00221            -0.00160
  6.4517            -0.00240            -0.00180
  6.5143            -0.00258            -0.00201
  6.5770            -0.00277            -0.00224
  6.6396            -0.00294            -0.00249
  6.7022            -0.00311            -0.00276
  6.7649            -0.00326            -0.00305
  6.8275            -0.00338            -0.00335
  6.8902            -0.00348            -0.00366
  6.9528            -0.00355            -0.00399
  7.0154            -0.00358            -0.00431
  7.0781            -0.00359            -0.00464
  7.1407            -0.00357            -0.00496
  7.2033            -0.00353            -0.00526
  7.2660            -0.00350            -0.00555
  7.3286            -0.00348            -0.00581
  7.3913            -0.00346            -0.00603
  7.4539            -0.00345            -0.00618
  7.5165            -0.00344            -0.00625
  7.5792            -0.00342            -0.00622
  7.6418            -0.00338            -0.00605
  7.7045            -0.00332            -0.00573
  7.7671            -0.00323            -0.00524
  7.8297            -0.00312            -0.00457
  7.8924            -0.00299            -0.00372
  7.9550            -0.00285            -0.00273
  8.0176            -0.00269            -0.00173
  8.0803            -0.00254            -0.00083
  8.1429            -0.00237            -0.00020
  8.2056            -0.00221             0.00008
  8.2682            -0.00205            -0.00003
  8.3308            -0.00188            -0.00042
  8.3935            -0.00172            -0.00091
  8.4561            -0.00156            -0.00132
  8.5187            -0.00140            -0.00148
  8.5814            -0.00125            -0.00134
  8.6440            -0.00110            -0.00094
  8.7067            -0.00095            -0.00040
  8.7693            -0.00082             0.00016
  8.8319            -0.00069             0.00062
  8.8946            -0.00057             0.00093
  8.9572            -0.00047             0.00107
  9.0198            -0.00039             0.00105
  9.0825            -0.00033             0.00092
  9.1451            -0.00030             0.00070
  9.2078            -0.00030             0.00043
  9.2704            -0.00030             0.00014
  9.3330            -0.00032            -0.00016
  9.3957            -0.00033            -0.00045
  9.4583            -0.00032            -0.00073
  9.5209            -0.00030            -0.00097
  9.5836            -0.00026            -0.00116
  9.6462            -0.00022            -0.00127
  9.7089            -0.00017            -0.00129
  9.7715            -0.00013            -0.00120
  9.8341            -0.00009            -0.00100
  9.8968            -0.00006            -0.00071
  9.9594            -0.00004            -0.00038
 10.0221            -0.00001            -0.00007
 10.0847             0.00001             0.00013
 10.1473             0.00004             0.00017
 10.2100             0.00006             0.00005
 10.2726             0.00009            -0.00020
 10.3352             0.00011            -0.00048
 10.3979             0.00013            -0.00069
 10.4605             0.00015            -0.00073
 10.5232             0.00017            -0.00059
 10.5858             0.00018            -0.00027
 10.6484             0.00018             0.00015
 10.7111             0.00018             0.00060
 10.7737             0.00018             0.00102
 10.8363             0.00017             0.00136
 10.8990             0.00016             0.00160
 10.9616             0.00015             0.00176
 11.0243             0.00014             0.00183
 11.0869             0.00013             0.00182
 11.1495             0.00012             0.00173
 11.2122             0.00012             0.00155
 11.2748             0.00011             0.00129
 11.3374             0.00011             0.00097
 11.4001             0.00011             0.00058
 11.4627             0.00012             0.00016
 11.5254             0.00013            -0.00026
 11.5880             0.00015            -0.00066
 11.6506             0.00017            -0.00101
 11.7133             0.00019            -0.00127
 11.7759             0.00020            -0.00143
 11.8385             0.00021            -0.00145
 11.9012             0.00021            -0.00132
 11.9638             0.00020            -0.00106
 12.0265             0.00018            -0.00071
 12.0891             0.00015            -0.00037
 12.1517             0.00011            -0.00012
 12.2144             0.00006            -0.00002
 12.2770             0.00000            -0.00008
 12.3397            -0.00006            -0.00023
 12.4023            -0.00012            -0.00038
 12.4649            -0.00018            -0.00043
 12.5276            -0.00023            -0.00033
 12.5902            -0.00027            -0.00007
 12.6528            -0.00030             0.00031
 12.7155            -0.00031             0.00072
 12.7781            -0.00032             0.00108
 12.8408            -0.00031             0.00132
 12.9034            -0.00028             0.00141
 12.9660            -0.00026             0.00134
 13.0287            -0.00023             0.00114
 13.0913            -0.00020             0.00083
 13.1539            -0.00018             0.00045
 13.2166            -0.00017             0.00005
 13.2792            -0.00017            -0.00035
 13.3419            -0.00017            -0.00072
 13.4045            -0.00018            -0.00104
 13.4671            -0.00017            -0.00130
 13.5298            -0.00017            -0.00149
 13.5924            -0.00016            -0.00160
 13.6550            -0.00015            -0.00162
 13.7177            -0.00014            -0.00155
 13.7803            -0.00014            -0.00137
 13.8430            -0.00013            -0.00111
 13.9056            -0.00012            -0.00078
 13.9682            -0.00012            -0.00042
 14.0309            -0.00011            -0.00010
 14.0935            -0.00010             0.00014
 14.1561            -0.00008             0.00024
 14.2188            -0.00005             0.00020
 14.2814            -0.00002             0.00006
 14.3441             0.00000            -0.00013
 14.4067             0.00003            -0.00029
 14.4693             0.00006            -0.00035
 14.5320             0.00008            -0.00027
 14.5946             0.00009            -0.00006
 14.6573             0.00010             0.00025
 14.7199             0.00011             0.00061
 14.7825             0.00011             0.00096
 14.8452             0.00011             0.00126
 14.9078             0.00011             0.00148
 14.9704             0.00010             0.00162
 15.0331             0.00010             0.00166
 15.0957             0.00010             0.00160
 15.1584             0.00009             0.00146
 15.2210             0.00008             0.00124
 15.2836             0.00007             0.00094
 15.3463             0.00007             0.00059
 15.4089             0.00006             0.00020
 15.4715             0.00007            -0.00021
 15.5342             0.00008            -0.00061
 15.5968             0.00010            -0.00096
 15.6595             0.00013            -0.00126
 15.7221             0.00016            -0.00145
 15.7847             0.00018            -0.00151
 15.8474             0.00019            -0.00143
 15.9100             0.00020            -0.00120
 15.9726             0.00019            -0.00088
 16.0353             0.00017            -0.00052
 16.0979             0.00014            -0.00023
 16.1606             0.00009            -0.00005
 16.2232             0.00004            -0.00002
 16.2858            -0.00001            -0.00008
 16.3485            -0.00007            -0.00017
 16.4111            -0.00013            -0.00021
 16.4737            -0.00018            -0.00012
 16.5364            -0.00022             0.00010
 16.5990            -0.00025             0.00042
 16.6617            -0.00027             0.00078
 16.7243            -0.00027             0.00111
 16.7869            -0.00026             0.00134
 16.8496            -0.00024             0.00145
 16.9122            -0.00022             0.00141
 16.9749            -0.00018             0.00123
 17.0375            -0.00016             0.00094
 17.1001            -0.00013             0.00058
 17.1628            -0.00012             0.00018
 17.2254            -0.00011            -0.00022
 17.2880            -0.00011            -0.00061
 17.3507            -0.00011            -0.00095
 17.4133            -0.00012            -0.00123
 17.4760            -0.00012            -0.00144
 17.5386            -0.00011            -0.00157
 17.6012            -0.00011            -0.00162
 17.6639            -0.00010            -0.00157
 17.7265            -0.00010            -0.00143
 17.7891            -0.00009            -0.00119
 17.8518            -0.00008            -0.00087
 17.9144            -0.00008            -0.00052
 17.9771            -0.00007            -0.00018
 18.0397            -0.00005             0.00009
 18.1023            -0.00003             0.00024
 18.1650            -0.00001             0.00026
 18.2276             0.00002             0.00015
 18.2902             0.00005            -0.00001
 18.3529             0.00007            -0.00017
 18.4155             0.00010            -0.00025
 18.4782             0.00012            -0.00020
 18.5408             0.00014            -0.00002
 18.6034             0.00015             0.00027
 18.6661             0.00016             0.00062
 18.7287             0.00016             0.00098
 18.7913             0.00016             0.00130
 18.8540             0.00016             0.00154
 18.9166             0.00016             0.00170
 18.9793             0.00016             0.00175
 19.0419             0.00015             0.00171
 19.1045             0.00015             0.00158
 19.1672             0.00014             0.00135
 19.2298             0.00013             0.00106
 19.2924             0.00012             0.00071
 19.3551             0.00012             0.00031
 19.4177             0.00012            -0.00010
 19.4804             0.00012            -0.00050
 19.5430             0.00014            -0.00088
 19.6056             0.00016            -0.00119
 19.6683             0.00018            -0.00141
 19.7309             0.00020            -0.00150
 19.7936             0.00021            -0.00143
 19.8562             0.00022            -0.00122
 19.9188             0.00021            -0.00090
 19.9815             0.00018            -0.00055
 20.0441             0.00015            -0.00023
 20.1067             0.00011            -0.00004
 20.1694             0.00005             0.00001
 20.2320            -0.00000            -0.00006
 20.2947            -0.00006            -0.00017
 20.3573            -0.00012            -0.00024
 20.4199            -0.00017            -0.00019
 20.4826            -0.00022            -0.00001
 20.5452            -0.00025             0.00029
 20.6078            -0.00027             0.00065
 20.6705            -0.00028             0.00100
 20.7331            -0.00027             0.00126
 20.7958            -0.00025             0.00139
 20.8584            -0.00023             0.00139
 20.9210            -0.00020             0.00124
 20.9837            -0.00017             0.00098
 21.0463            -0.00014             0.00063
 21.1089            -0.00013             0.00024
 21.1716            -0.00012            -0.00016
 21.2342            -0.00012            -0.00054
 21.2969            -0.00013            -0.00088
 21.3595            -0.00013            -0.00117
 21.4221            -0.00013            -0.00139
 21.4848            -0.00012            -0.00153
 21.5474            -0.00012            -0.00159
 21.6100            -0.00011            -0.00156
 21.6727            -0.00010            -0.00143
 21.7353            -0.00009            -0.00121
 21.7980            -0.00009            -0.00090
 21.8606            -0.00008            -0.00055
 21.9232            -0.00007            -0.00021
 21.9859            -0.00005             0.00006
 22.0485            -0.00004             0.00023
 22.1112            -0.00001             0.00025
 22.1738             0.00001             0.00016
 22.2364             0.00004            -0.00001
 22.2991             0.00007            -0.00017
 22.3617             0.00009            -0.00026
 22.4243             0.00012            -0.00023
 22.4870             0.00013            -0.00006
 22.5496             0.00014             0.00021
 22.6123             0.00015             0.00056
 22.6749             0.00015             0.00092
 22.7375             0.00015             0.00125
 22.8002             0.00015             0.00150
 22.8628             0.00016             0.00167
 22.9254             0.00016             0.00174
 22.9881             0.00016             0.00171
 23.0507             0.00015             0.00158
 23.1134             0.00015             0.00137
 23.1760             0.00014             0.00109
 23.2386             0.00013             0.00075
 23.3013             0.00012             0.00036
 23.3639             0.00012            -0.00004
 23.4265             0.00012            -0.00045
 23.4892             0.00014            -0.00082
 23.5518             0.00016            -0.00114
 23.6145             0.00018            -0.00136
 23.6771             0.00020            -0.00146
 23.7397             0.00022            -0.00141
 23.8024             0.00022            -0.00121
 23.8650             0.00022            -0.00090
 23.9276             0.00020            -0.00054
 23.9903             0.00016            -0.00023
 24.0529             0.00012            -0.00003
 24.1156             0.00007             0.00002
 24.1782             0.00001            -0.00005
 24.2408            -0.00005            -0.00017
 24.3035            -0.00011            -0.00026
 24.3661            -0.00016            -0.00023
 24.4288            -0.00021            -0.00006
 24.4914            -0.00024             0.00024
 24.5540            -0.00027             0.00061
 24.6167            -0.00028             0.00098
 24.6793            -0.00027             0.00126
 24.7419            -0.00026             0.00142
 24.8046            -0.00023             0.00142
 24.8672            -0.00020             0.00128
 24.9299            -0.00017             0.00102
 24.9925            -0.00015             0.00067
 25.0551            -0.00013             0.00027
 25.1178            -0.00013            -0.00014
 25.1804            -0.00012            -0.00053
 25.2430            -0.00013            -0.00089
 25.3057            -0.00013            -0.00118
 25.3683            -0.00013            -0.00142
 25.4310            -0.00012            -0.00157
