#Distance(A)    Macroscopic-Average    Planar-Average
  0.0000            -0.00001            -0.00001
  0.0626            -0.00001            -0.00001
  0.1253            -0.00001            -0.00001
  0.1879            -0.00001            -0.00001
  0.2506            -0.00001            -0.00001
  0.3132            -0.00001            -0.00001
  0.3758            -0.00001            -0.00001
  0.4385            -0.00001            -0.00001
  0.5011            -0.00001            -0.00001
  0.5637            -0.00001            -0.00001
  0.6264            -0.00001            -0.00001
  0.6890            -0.00001            -0.00001
  0.7517            -0.00001            -0.00001
  0.8143            -0.00001            -0.00001
  0.8769            -0.00001            -0.00001
  0.9396            -0.00001            -0.00001
  1.0022            -0.00001            -0.00001
  1.0648            -0.00001            -0.00001
  1.1275            -0.00001            -0.00001
  1.1901            -0.00001            -0.00001
  1.2528            -0.00001            -0.00001
  1.3154            -0.00001            -0.00001
  1.3780            -0.00001            -0.00001
  1.4407            -0.00001            -0.00001
  1.5033            -0.00001            -0.00001
  1.5659            -0.00001            -0.00001
  1.6286            -0.00001            -0.00001
  1.6912            -0.00001            -0.00001
  1.7539            -0.00001            -0.00001
  1.8165            -0.00001            -0.00001
  1.8791            -0.00001            -0.00001
  1.9418            -0.00001            -0.00001
  2.0044            -0.00001            -0.00001
  2.0670            -0.00001            -0.00001
  2.1297            -0.00001            -0.00001
  2.1923            -0.00001            -0.00001
  2.2550            -0.00001            -0.00001
  2.3176            -0.00001            -0.00001
  2.3802            -0.00001            -0.00001
  2.4429            -0.00001            -0.00001
  2.5055            -0.00001            -0.00001
  2.5682            -0.00001            -0.00001
  2.6308            -0.00001            -0.00001
  2.6934            -0.00001            -0.00001
  2.7561            -0.00001            -0.00001
  2.8187            -0.00001            -0.00001
  2.8813            -0.00001            -0.00001
  2.9440            -0.00001            -0.00001
  3.0066            -0.00001            -0.00001
  3.0693            -0.00001            -0.00001
  3.1319            -0.00001            -0.00001
  3.1945            -0.00001            -0.00000
  3.2572            -0.00001            -0.00000
  3.3198            -0.00000            -0.00000
  3.3824            -0.00000            -0.00000
  3.4451            -0.00000            -0.00000
  3.5077            -0.00000            -0.00000
  3.5704            -0.00000            -0.00000
  3.6330            -0.00000            -0.00000
  3.6956            -0.00000            -0.00000
  3.7583            -0.00000            -0.00000
  3.8209            -0.00001            -0.00000
  3.8835            -0.00001            -0.00000
  3.9462            -0.00001            -0.00000
  4.0088            -0.00001            -0.00000
  4.0715            -0.00001            -0.00000
  4.1341            -0.00001            -0.00000
  4.1967            -0.00001            -0.00000
  4.2594            -0.00001            -0.00000
  4.3220            -0.00001            -0.00000
  4.3846            -0.00001            -0.00001
  4.4473            -0.00002            -0.00001
  4.5099            -0.00002            -0.00001
  4.5726            -0.00002            -0.00001
  4.6352            -0.00003            -0.00001
  4.6978            -0.00003            -0.00001
  4.7605            -0.00003            -0.00002
  4.8231            -0.00004            -0.00002
  4.8858            -0.00004            -0.00002
  4.9484            -0.00005            -0.00002
  5.0110            -0.00006            -0.00003
  5.0737            -0.00007            -0.00003
  5.1363            -0.00008            -0.00004
  5.1989            -0.00009            -0.00005
  5.2616            -0.00010            -0.00005
  5.3242            -0.00012            -0.00006
  5.3869            -0.00013            -0.00007
  5.4495            -0.00015            -0.00008
  5.5121            -0.00017            -0.00009
  5.5748            -0.00020            -0.00011
  5.6374            -0.00022            -0.00012
  5.7000            -0.00025            -0.00014
  5.7627            -0.00028            -0.00016
  5.8253            -0.00032            -0.00019
  5.8880            -0.00035            -0.00021
  5.9506            -0.00040            -0.00024
  6.0132            -0.00044            -0.00028
  6.0759            -0.00049            -0.00032
  6.1385            -0.00054            -0.00036
  6.2011            -0.00060            -0.00041
  6.2638            -0.00066            -0.00046
  6.3264            -0.00072            -0.00051
  6.3891            -0.00078            -0.00058
  6.4517            -0.00085            -0.00065
  6.5143            -0.00092            -0.00072
  6.5770            -0.00099            -0.00080
  6.6396            -0.00106            -0.00089
  6.7022            -0.00112            -0.00099
  6.7649            -0.00119            -0.00109
  6.8275            -0.00124            -0.00120
  6.8902            -0.00129            -0.00131
  6.9528            -0.00132            -0.00142
  7.0154            -0.00135            -0.00154
  7.0781            -0.00136            -0.00166
  7.1407            -0.00136            -0.00178
  7.2033            -0.00135            -0.00189
  7.2660            -0.00133            -0.00200
  7.3286            -0.00132            -0.00209
  7.3913            -0.00131            -0.00217
  7.4539            -0.00130            -0.00223
  7.5165            -0.00129            -0.00225
  7.5792            -0.00128            -0.00224
  7.6418            -0.00127            -0.00219
  7.7045            -0.00125            -0.00207
  7.7671            -0.00122            -0.00190
  7.8297            -0.00118            -0.00166
  7.8924            -0.00113            -0.00135
  7.9550            -0.00107            -0.00101
  8.0176            -0.00100            -0.00065
  8.0803            -0.00094            -0.00034
  8.1429            -0.00087            -0.00012
  8.2056            -0.00080            -0.00003
  8.2682            -0.00073            -0.00007
  8.3308            -0.00066            -0.00021
  8.3935            -0.00059            -0.00038
  8.4561            -0.00052            -0.00051
  8.5187            -0.00046            -0.00055
  8.5814            -0.00040            -0.00048
  8.6440            -0.00034            -0.00032
  8.7067            -0.00029            -0.00012
  8.7693            -0.00025             0.00009
  8.8319            -0.00021             0.00026
  8.8946            -0.00018             0.00036
  8.9572            -0.00015             0.00041
  9.0198            -0.00014             0.00040
  9.0825            -0.00013             0.00035
  9.1451            -0.00013             0.00028
  9.2078            -0.00013             0.00018
  9.2704            -0.00012             0.00007
  9.3330            -0.00012            -0.00004
  9.3957            -0.00011            -0.00016
  9.4583            -0.00010            -0.00027
  9.5209            -0.00009            -0.00036
  9.5836            -0.00009            -0.00043
  9.6462            -0.00008            -0.00047
  9.7089            -0.00008            -0.00049
  9.7715            -0.00007            -0.00046
  9.8341            -0.00007            -0.00041
  9.8968            -0.00007            -0.00032
  9.9594            -0.00006            -0.00021
 10.0221            -0.00005            -0.00010
 10.0847            -0.00004            -0.00001
 10.1473            -0.00002             0.00002
 10.2100            -0.00001             0.00000
 10.2726             0.00001            -0.00006
 10.3352             0.00003            -0.00015
 10.3979             0.00005            -0.00023
 10.4605             0.00007            -0.00026
 10.5232             0.00008            -0.00024
 10.5858             0.00009            -0.00014
 10.6484             0.00010            -0.00000
 10.7111             0.00010             0.00017
 10.7737             0.00010             0.00034
 10.8363             0.00009             0.00049
 10.8990             0.00008             0.00062
 10.9616             0.00007             0.00071
 11.0243             0.00006             0.00075
 11.0869             0.00005             0.00076
 11.1495             0.00005             0.00072
 11.2122             0.00005             0.00064
 11.2748             0.00005             0.00054
 11.3374             0.00006             0.00041
 11.4001             0.00007             0.00025
 11.4627             0.00008             0.00008
 11.5254             0.00009            -0.00010
 11.5880             0.00009            -0.00027
 11.6506             0.00010            -0.00042
 11.7133             0.00010            -0.00054
 11.7759             0.00010            -0.00060
 11.8385             0.00010            -0.00060
 11.9012             0.00009            -0.00054
 11.9638             0.00009            -0.00042
 12.0265             0.00008            -0.00027
 12.0891             0.00007            -0.00011
 12.1517             0.00006             0.00001
 12.2144             0.00004             0.00008
 12.2770             0.00002             0.00010
 12.3397             0.00000             0.00006
 12.4023            -0.00002             0.00002
 12.4649            -0.00003            -0.00001
 12.5276            -0.00005             0.00001
 12.5902            -0.00006             0.00009
 12.6528            -0.00007             0.00022
 12.7155            -0.00008             0.00035
 12.7781            -0.00008             0.00047
 12.8408            -0.00008             0.00054
 12.9034            -0.00008             0.00055
 12.9660            -0.00007             0.00050
 13.0287            -0.00007             0.00041
 13.0913            -0.00007             0.00028
 13.1539            -0.00007             0.00013
 13.2166            -0.00007            -0.00003
 13.2792            -0.00007            -0.00019
 13.3419            -0.00007            -0.00034
 13.4045            -0.00007            -0.00047
 13.4671            -0.00007            -0.00057
 13.5298            -0.00007            -0.00065
 13.5924            -0.00008            -0.00069
 13.6550            -0.00008            -0.00070
 13.7177            -0.00009            -0.00067
 13.7803            -0.00010            -0.00059
 13.8430            -0.00010            -0.00048
 13.9056            -0.00010            -0.00034
 13.9682            -0.00010            -0.00019
 14.0309            -0.00009            -0.00005
 14.0935            -0.00008             0.00006
 14.1561            -0.00006             0.00012
 14.2188            -0.00004             0.00012
 14.2814            -0.00002             0.00007
 14.3441             0.00000            -0.00000
 14.4067             0.00002            -0.00007
 14.4693             0.00004            -0.00011
 14.5320             0.00006            -0.00009
 14.5946             0.00008            -0.00001
 14.6573             0.00008             0.00011
 14.7199             0.00009             0.00025
 14.7825             0.00009             0.00040
 14.8452             0.00009             0.00052
 14.9078             0.00008             0.00061
 14.9704             0.00007             0.00066
 15.0331             0.00007             0.00068
 15.0957             0.00006             0.00065
 15.1584             0.00006             0.00059
 15.2210             0.00006             0.00050
 15.2836             0.00006             0.00037
 15.3463             0.00007             0.00023
 15.4089             0.00007             0.00007
 15.4715             0.00008            -0.00010
 15.5342             0.00008            -0.00027
 15.5968             0.00009            -0.00042
 15.6595             0.00009            -0.00053
 15.7221             0.00009            -0.00059
 15.7847             0.00010            -0.00060
 15.8474             0.00010            -0.00054
 15.9100             0.00009            -0.00042
 15.9726             0.00009            -0.00026
 16.0353             0.00008            -0.00009
 16.0979             0.00007             0.00006
 16.1606             0.00005             0.00015
 16.2232             0.00004             0.00018
 16.2858             0.00002             0.00015
 16.3485             0.00000             0.00010
 16.4111            -0.00002             0.00006
 16.4737            -0.00003             0.00006
 16.5364            -0.00005             0.00012
 16.5990            -0.00006             0.00022
 16.6617            -0.00006             0.00035
 16.7243            -0.00007             0.00046
 16.7869            -0.00007             0.00053
 16.8496            -0.00007             0.00054
 16.9122            -0.00007             0.00050
 16.9749            -0.00007             0.00041
 17.0375            -0.00007             0.00029
 17.1001            -0.00007             0.00014
 17.1628            -0.00007            -0.00003
 17.2254            -0.00007            -0.00019
 17.2880            -0.00007            -0.00035
 17.3507            -0.00007            -0.00048
 17.4133            -0.00007            -0.00060
 17.4760            -0.00008            -0.00068
 17.5386            -0.00009            -0.00073
 17.6012            -0.00009            -0.00074
 17.6639            -0.00010            -0.00071
 17.7265            -0.00011            -0.00064
 17.7891            -0.00011            -0.00052
 17.8518            -0.00012            -0.00038
 17.9144            -0.00011            -0.00022
 17.9771            -0.00011            -0.00007
 18.0397            -0.00009             0.00005
 18.1023            -0.00008             0.00013
 18.1650            -0.00006             0.00014
 18.2276            -0.00004             0.00010
 18.2902            -0.00001             0.00003
 18.3529             0.00001            -0.00005
 18.4155             0.00003            -0.00009
 18.4782             0.00005            -0.00008
 18.5408             0.00007            -0.00002
 18.6034             0.00008             0.00009
 18.6661             0.00009             0.00023
 18.7287             0.00009             0.00037
 18.7913             0.00009             0.00049
 18.8540             0.00008             0.00058
 18.9166             0.00007             0.00064
 18.9793             0.00007             0.00066
 19.0419             0.00006             0.00064
 19.1045             0.00006             0.00058
 19.1672             0.00006             0.00050
 19.2298             0.00006             0.00038
 19.2924             0.00006             0.00024
 19.3551             0.00007             0.00009
 19.4177             0.00007            -0.00008
 19.4804             0.00007            -0.00024
 19.5430             0.00008            -0.00039
 19.6056             0.00008            -0.00050
 19.6683             0.00008            -0.00057
 19.7309             0.00009            -0.00059
 19.7936             0.00009            -0.00054
 19.8562             0.00009            -0.00043
 19.9188             0.00008            -0.00028
 19.9815             0.00008            -0.00012
 20.0441             0.00007             0.00003
 20.1067             0.00005             0.00012
 20.1694             0.00004             0.00015
 20.2320             0.00002             0.00012
 20.2947             0.00000             0.00007
 20.3573            -0.00001             0.00003
 20.4199            -0.00003             0.00003
 20.4826            -0.00004             0.00009
 20.5452            -0.00005             0.00020
 20.6078            -0.00006             0.00033
 20.6705            -0.00006             0.00046
 20.7331            -0.00007             0.00054
 20.7958            -0.00007             0.00057
 20.8584            -0.00006             0.00053
 20.9210            -0.00006             0.00045
 20.9837            -0.00006             0.00033
 21.0463            -0.00006             0.00018
 21.1089            -0.00006             0.00001
 21.1716            -0.00006            -0.00015
 21.2342            -0.00006            -0.00031
 21.2969            -0.00006            -0.00045
 21.3595            -0.00007            -0.00057
 21.4221            -0.00007            -0.00065
 21.4848            -0.00008            -0.00071
 21.5474            -0.00009            -0.00072
 21.6100            -0.00009            -0.00070
 21.6727            -0.00010            -0.00064
 21.7353            -0.00011            -0.00053
 21.7980            -0.00011            -0.00040
 21.8606            -0.00011            -0.00024
 21.9232            -0.00010            -0.00009
 21.9859            -0.00009             0.00003
 22.0485            -0.00008             0.00011
 22.1112            -0.00006             0.00013
 22.1738            -0.00003             0.00009
 22.2364            -0.00001             0.00002
 22.2991             0.00001            -0.00005
 22.3617             0.00003            -0.00010
 22.4243             0.00005            -0.00010
 22.4870             0.00007            -0.00003
 22.5496             0.00008             0.00007
 22.6123             0.00009             0.00021
 22.6749             0.00009             0.00036
 22.7375             0.00009             0.00049
 22.8002             0.00009             0.00058
 22.8628             0.00008             0.00065
 22.9254             0.00007             0.00067
 22.9881             0.00007             0.00066
 23.0507             0.00006             0.00061
 23.1134             0.00006             0.00052
 23.1760             0.00006             0.00041
 23.2386             0.00006             0.00028
 23.3013             0.00006             0.00012
 23.3639             0.00007            -0.00004
 23.4265             0.00007            -0.00021
 23.4892             0.00007            -0.00036
 23.5518             0.00008            -0.00048
 23.6145             0.00008            -0.00056
 23.6771             0.00008            -0.00058
 23.7397             0.00008            -0.00054
 23.8024             0.00008            -0.00045
 23.8650             0.00008            -0.00031
 23.9276             0.00007            -0.00015
 23.9903             0.00007            -0.00001
 24.0529             0.00005             0.00008
 24.1156             0.00004             0.00011
 24.1782             0.00002             0.00008
 24.2408             0.00000             0.00003
 24.3035            -0.00002            -0.00001
 24.3661            -0.00003            -0.00000
 24.4288            -0.00004             0.00006
 24.4914            -0.00006             0.00017
 24.5540            -0.00006             0.00031
 24.6167            -0.00007             0.00044
 24.6793            -0.00007             0.00053
 24.7419            -0.00007             0.00057
 24.8046            -0.00007             0.00055
 24.8672            -0.00007             0.00048
 24.9299            -0.00007             0.00036
 24.9925            -0.00006             0.00021
 25.0551            -0.00006             0.00005
 25.1178            -0.00006            -0.00012
 25.1804            -0.00006            -0.00028
 25.2430            -0.00006            -0.00042
 25.3057            -0.00007            -0.00054
 25.3683            -0.00007            -0.00063
 25.4310            -0.00007            -0.00069
