#Distance(A)    Macroscopic-Average    Planar-Average
  0.0000            -0.00031            -0.00032
  0.0626            -0.00031            -0.00032
  0.1253            -0.00031            -0.00033
  0.1879            -0.00031            -0.00032
  0.2506            -0.00031            -0.00032
  0.3132            -0.00030            -0.00031
  0.3758            -0.00030            -0.00030
  0.4385            -0.00030            -0.00030
  0.5011            -0.00030            -0.00030
  0.5637            -0.00029            -0.00030
  0.6264            -0.00029            -0.00030
  0.6890            -0.00029            -0.00030
  0.7517            -0.00028            -0.00029
  0.8143            -0.00028            -0.00028
  0.8769            -0.00028            -0.00028
  0.9396            -0.00027            -0.00027
  1.0022            -0.00027            -0.00027
  1.0648            -0.00027            -0.00027
  1.1275            -0.00026            -0.00027
  1.1901            -0.00026            -0.00027
  1.2528            -0.00025            -0.00026
  1.3154            -0.00025            -0.00025
  1.3780            -0.00024            -0.00024
  1.4407            -0.00024            -0.00024
  1.5033            -0.00023            -0.00024
  1.5659            -0.00023            -0.00024
  1.6286            -0.00023            -0.00023
  1.6912            -0.00022            -0.00023
  1.7539            -0.00022            -0.00022
  1.8165            -0.00021            -0.00021
  1.8791            -0.00021            -0.00020
  1.9418            -0.00020            -0.00020
  2.0044            -0.00020            -0.00019
  2.0670            -0.00019            -0.00019
  2.1297            -0.00019            -0.00019
  2.1923            -0.00018            -0.00019
  2.2550            -0.00018            -0.00018
  2.3176            -0.00017            -0.00017
  2.3802            -0.00017            -0.00016
  2.4429            -0.00016            -0.00015
  2.5055            -0.00016            -0.00015
  2.5682            -0.00015            -0.00015
  2.6308            -0.00015            -0.00015
  2.6934            -0.00014            -0.00015
  2.7561            -0.00014            -0.00014
  2.8187            -0.00013            -0.00013
  2.8813            -0.00013            -0.00012
  2.9440            -0.00012            -0.00011
  3.0066            -0.00012            -0.00011
  3.0693            -0.00012            -0.00011
  3.1319            -0.00011            -0.00011
  3.1945            -0.00011            -0.00011
  3.2572            -0.00011            -0.00010
  3.3198            -0.00010            -0.00009
  3.3824            -0.00010            -0.00008
  3.4451            -0.00010            -0.00008
  3.5077            -0.00009            -0.00008
  3.5704            -0.00009            -0.00008
  3.6330            -0.00009            -0.00008
  3.6956            -0.00009            -0.00008
  3.7583            -0.00009            -0.00008
  3.8209            -0.00009            -0.00007
  3.8835            -0.00008            -0.00006
  3.9462            -0.00008            -0.00006
  4.0088            -0.00009            -0.00006
  4.0715            -0.00009            -0.00007
  4.1341            -0.00009            -0.00007
  4.1967            -0.00009            -0.00007
  4.2594            -0.00009            -0.00007
  4.3220            -0.00010            -0.00006
  4.3846            -0.00010            -0.00006
  4.4473            -0.00011            -0.00006
  4.5099            -0.00012            -0.00007
  4.5726            -0.00013            -0.00008
  4.6352            -0.00014            -0.00009
  4.6978            -0.00015            -0.00010
  4.7605            -0.00017            -0.00010
  4.8231            -0.00018            -0.00010
  4.8858            -0.00020            -0.00011
  4.9484            -0.00022            -0.00011
  5.0110            -0.00025            -0.00013
  5.0737            -0.00028            -0.00015
  5.1363            -0.00031            -0.00018
  5.1989            -0.00035            -0.00020
  5.2616            -0.00039            -0.00022
  5.3242            -0.00044            -0.00024
  5.3869            -0.00049            -0.00026
  5.4495            -0.00054            -0.00029
  5.5121            -0.00061            -0.00034
  5.5748            -0.00068            -0.00039
  5.6374            -0.00076            -0.00044
  5.7000            -0.00085            -0.00050
  5.7627            -0.00094            -0.00057
  5.8253            -0.00105            -0.00063
  5.8880            -0.00116            -0.00070
  5.9506            -0.00128            -0.00079
  6.0132            -0.00141            -0.00089
  6.0759            -0.00155            -0.00101
  6.1385            -0.00170            -0.00115
  6.2011            -0.00186            -0.00129
  6.2638            -0.00203            -0.00144
  6.3264            -0.00220            -0.00160
  6.3891            -0.00238            -0.00177
  6.4517            -0.00256            -0.00197
  6.5143            -0.00275            -0.00218
  6.5770            -0.00293            -0.00242
  6.6396            -0.00310            -0.00268
  6.7022            -0.00326            -0.00296
  6.7649            -0.00340            -0.00324
  6.8275            -0.00352            -0.00353
  6.8902            -0.00360            -0.00382
  6.9528            -0.00365            -0.00413
  7.0154            -0.00366            -0.00446
  7.0781            -0.00364            -0.00479
  7.1407            -0.00360            -0.00512
  7.2033            -0.00353            -0.00543
  7.2660            -0.00347            -0.00571
  7.3286            -0.00341            -0.00594
  7.3913            -0.00337            -0.00613
  7.4539            -0.00333            -0.00626
  7.5165            -0.00329            -0.00632
  7.5792            -0.00325            -0.00628
  7.6418            -0.00318            -0.00610
  7.7045            -0.00310            -0.00575
  7.7671            -0.00300            -0.00520
  7.8297            -0.00288            -0.00443
  7.8924            -0.00274            -0.00344
  7.9550            -0.00259            -0.00232
  8.0176            -0.00245            -0.00118
  8.0803            -0.00229            -0.00017
  8.1429            -0.00214             0.00055
  8.2056            -0.00199             0.00089
  8.2682            -0.00184             0.00083
  8.3308            -0.00169             0.00045
  8.3935            -0.00154            -0.00006
  8.4561            -0.00140            -0.00051
  8.5187            -0.00127            -0.00075
  8.5814            -0.00114            -0.00070
  8.6440            -0.00101            -0.00040
  8.7067            -0.00089             0.00003
  8.7693            -0.00078             0.00047
  8.8319            -0.00067             0.00080
  8.8946            -0.00058             0.00097
  8.9572            -0.00050             0.00095
  9.0198            -0.00044             0.00080
  9.0825            -0.00040             0.00055
  9.1451            -0.00039             0.00024
  9.2078            -0.00039            -0.00010
  9.2704            -0.00041            -0.00045
  9.3330            -0.00043            -0.00080
  9.3957            -0.00044            -0.00114
  9.4583            -0.00044            -0.00148
  9.5209            -0.00042            -0.00177
  9.5836            -0.00039            -0.00201
  9.6462            -0.00035            -0.00216
  9.7089            -0.00031            -0.00217
  9.7715            -0.00028            -0.00203
  9.8341            -0.00026            -0.00174
  9.8968            -0.00024            -0.00131
  9.9594            -0.00023            -0.00081
 10.0221            -0.00022            -0.00032
 10.0847            -0.00021             0.00008
 10.1473            -0.00020             0.00033
 10.2100            -0.00018             0.00040
 10.2726            -0.00016             0.00033
 10.3352            -0.00015             0.00019
 10.3979            -0.00013             0.00005
 10.4605            -0.00012             0.00001
 10.5232            -0.00012             0.00009
 10.5858            -0.00012             0.00028
 10.6484            -0.00013             0.00055
 10.7111            -0.00013             0.00082
 10.7737            -0.00014             0.00106
 10.8363            -0.00015             0.00121
 10.8990            -0.00015             0.00130
 10.9616            -0.00014             0.00131
 11.0243            -0.00012             0.00127
 11.0869            -0.00010             0.00117
 11.1495            -0.00007             0.00102
 11.2122            -0.00003             0.00080
 11.2748             0.00001             0.00050
 11.3374             0.00006             0.00012
 11.4001             0.00010            -0.00033
 11.4627             0.00015            -0.00083
 11.5254             0.00019            -0.00135
 11.5880             0.00023            -0.00183
 11.6506             0.00027            -0.00220
 11.7133             0.00030            -0.00242
 11.7759             0.00033            -0.00242
 11.8385             0.00035            -0.00218
 11.9012             0.00035            -0.00172
 11.9638             0.00035            -0.00108
 12.0265             0.00033            -0.00033
 12.0891             0.00030             0.00043
 12.1517             0.00027             0.00110
 12.2144             0.00022             0.00159
 12.2770             0.00017             0.00184
 12.3397             0.00012             0.00186
 12.4023             0.00008             0.00173
 12.4649             0.00003             0.00155
 12.5276             0.00000             0.00143
 12.5902            -0.00002             0.00142
 12.6528            -0.00002             0.00150
 12.7155            -0.00001             0.00162
 12.7781             0.00001             0.00168
 12.8408             0.00004             0.00162
 12.9034             0.00008             0.00143
 12.9660             0.00012             0.00112
 13.0287             0.00015             0.00075
 13.0913             0.00017             0.00036
 13.1539             0.00016            -0.00003
 13.2166             0.00014            -0.00041
 13.2792             0.00011            -0.00079
 13.3419             0.00006            -0.00114
 13.4045             0.00000            -0.00146
 13.4671            -0.00005            -0.00173
 13.5298            -0.00010            -0.00192
 13.5924            -0.00013            -0.00201
 13.6550            -0.00016            -0.00199
 13.7177            -0.00018            -0.00186
 13.7803            -0.00020            -0.00163
 13.8430            -0.00021            -0.00131
 13.9056            -0.00021            -0.00092
 13.9682            -0.00021            -0.00050
 14.0309            -0.00020            -0.00011
 14.0935            -0.00017             0.00021
 14.1561            -0.00014             0.00040
 14.2188            -0.00011             0.00045
 14.2814            -0.00007             0.00037
 14.3441            -0.00003             0.00022
 14.4067            -0.00000             0.00006
 14.4693             0.00003            -0.00003
 14.5320             0.00005             0.00001
 14.5946             0.00007             0.00019
 14.6573             0.00009             0.00047
 14.7199             0.00010             0.00080
 14.7825             0.00011             0.00110
 14.8452             0.00012             0.00135
 14.9078             0.00015             0.00150
 14.9704             0.00017             0.00157
 15.0331             0.00021             0.00156
 15.0957             0.00025             0.00148
 15.1584             0.00030             0.00133
 15.2210             0.00035             0.00111
 15.2836             0.00040             0.00082
 15.3463             0.00044             0.00044
 15.4089             0.00048             0.00000
 15.4715             0.00051            -0.00047
 15.5342             0.00054            -0.00092
 15.5968             0.00057            -0.00130
 15.6595             0.00059            -0.00155
 15.7221             0.00060            -0.00162
 15.7847             0.00060            -0.00148
 15.8474             0.00058            -0.00114
 15.9100             0.00054            -0.00062
 15.9726             0.00049             0.00002
 16.0353             0.00043             0.00070
 16.0979             0.00035             0.00132
 16.1606             0.00028             0.00178
 16.2232             0.00020             0.00201
 16.2858             0.00011             0.00200
 16.3485             0.00003             0.00179
 16.4111            -0.00005             0.00149
 16.4737            -0.00011             0.00121
 16.5364            -0.00017             0.00101
 16.5990            -0.00021             0.00090
 16.6617            -0.00023             0.00085
 16.7243            -0.00024             0.00078
 16.7869            -0.00024             0.00065
 16.8496            -0.00023             0.00043
 16.9122            -0.00021             0.00014
 16.9749            -0.00020            -0.00017
 17.0375            -0.00020            -0.00048
 17.1001            -0.00020            -0.00078
 17.1628            -0.00023            -0.00108
 17.2254            -0.00027            -0.00136
 17.2880            -0.00031            -0.00163
 17.3507            -0.00036            -0.00188
 17.4133            -0.00041            -0.00209
 17.4760            -0.00044            -0.00222
 17.5386            -0.00047            -0.00228
 17.6012            -0.00048            -0.00224
 17.6639            -0.00048            -0.00209
 17.7265            -0.00048            -0.00184
 17.7891            -0.00047            -0.00151
 17.8518            -0.00045            -0.00110
 17.9144            -0.00042            -0.00066
 17.9771            -0.00039            -0.00023
 18.0397            -0.00034             0.00014
 18.1023            -0.00030             0.00041
 18.1650            -0.00025             0.00054
 18.2276            -0.00020             0.00055
 18.2902            -0.00015             0.00047
 18.3529            -0.00010             0.00035
 18.4155            -0.00007             0.00028
 18.4782            -0.00003             0.00029
 18.5408            -0.00001             0.00041
 18.6034             0.00001             0.00060
 18.6661             0.00003             0.00082
 18.7287             0.00005             0.00103
 18.7913             0.00007             0.00118
 18.8540             0.00009             0.00127
 18.9166             0.00012             0.00130
 18.9793             0.00015             0.00128
 19.0419             0.00019             0.00120
 19.1045             0.00023             0.00107
 19.1672             0.00027             0.00086
 19.2298             0.00030             0.00059
 19.2924             0.00033             0.00024
 19.3551             0.00036            -0.00017
 19.4177             0.00038            -0.00061
 19.4804             0.00040            -0.00102
 19.5430             0.00042            -0.00137
 19.6056             0.00044            -0.00160
 19.6683             0.00045            -0.00167
 19.7309             0.00046            -0.00155
 19.7936             0.00045            -0.00124
 19.8562             0.00043            -0.00076
 19.9188             0.00040            -0.00017
 19.9815             0.00035             0.00046
 20.0441             0.00030             0.00103
 20.1067             0.00024             0.00147
 20.1694             0.00017             0.00169
 20.2320             0.00010             0.00170
 20.2947             0.00002             0.00154
 20.3573            -0.00005             0.00130
 20.4199            -0.00011             0.00110
 20.4826            -0.00016             0.00099
 20.5452            -0.00019             0.00098
 20.6078            -0.00022             0.00102
 20.6705            -0.00022             0.00103
 20.7331            -0.00022             0.00096
 20.7958            -0.00021             0.00078
 20.8584            -0.00019             0.00051
 20.9210            -0.00018             0.00018
 20.9837            -0.00017            -0.00016
 21.0463            -0.00017            -0.00051
 21.1089            -0.00019            -0.00086
 21.1716            -0.00022            -0.00119
 21.2342            -0.00026            -0.00151
 21.2969            -0.00030            -0.00180
 21.3595            -0.00034            -0.00203
 21.4221            -0.00038            -0.00220
 21.4848            -0.00040            -0.00227
 21.5474            -0.00041            -0.00225
 21.6100            -0.00041            -0.00211
 21.6727            -0.00041            -0.00187
 21.7353            -0.00040            -0.00154
 21.7980            -0.00038            -0.00114
 21.8606            -0.00036            -0.00070
 21.9232            -0.00033            -0.00027
 21.9859            -0.00029             0.00010
 22.0485            -0.00024             0.00036
 22.1112            -0.00019             0.00049
 22.1738            -0.00014             0.00048
 22.2364            -0.00009             0.00039
 22.2991            -0.00004             0.00027
 22.3617            -0.00000             0.00019
 22.4243             0.00004             0.00021
 22.4870             0.00007             0.00035
 22.5496             0.00009             0.00058
 22.6123             0.00011             0.00086
 22.6749             0.00012             0.00113
 22.7375             0.00014             0.00135
 22.8002             0.00015             0.00150
 22.8628             0.00017             0.00157
 22.9254             0.00019             0.00157
 22.9881             0.00022             0.00150
 23.0507             0.00024             0.00136
 23.1134             0.00026             0.00114
 23.1760             0.00028             0.00085
 23.2386             0.00029             0.00048
 23.3013             0.00030             0.00006
 23.3639             0.00031            -0.00039
 23.4265             0.00032            -0.00084
 23.4892             0.00033            -0.00123
 23.5518             0.00035            -0.00151
 23.6145             0.00037            -0.00166
 23.6771             0.00037            -0.00162
 23.7397             0.00037            -0.00140
 23.8024             0.00036            -0.00101
 23.8650             0.00033            -0.00050
 23.9276             0.00030             0.00005
 23.9903             0.00025             0.00054
 24.0529             0.00019             0.00089
 24.1156             0.00012             0.00104
 24.1782             0.00006             0.00101
 24.2408            -0.00001             0.00085
 24.3035            -0.00008             0.00066
 24.3661            -0.00014             0.00055
 24.4288            -0.00019             0.00057
 24.4914            -0.00023             0.00071
 24.5540            -0.00025             0.00091
 24.6167            -0.00026             0.00108
 24.6793            -0.00025             0.00116
 24.7419            -0.00024             0.00110
 24.8046            -0.00022             0.00092
 24.8672            -0.00020             0.00064
 24.9299            -0.00018             0.00031
 24.9925            -0.00018            -0.00004
 25.0551            -0.00018            -0.00041
 25.1178            -0.00020            -0.00078
 25.1804            -0.00023            -0.00114
 25.2430            -0.00026            -0.00146
 25.3057            -0.00028            -0.00173
 25.3683            -0.00030            -0.00193
 25.4310            -0.00032            -0.00204
