#Distance(A)    Macroscopic-Average    Planar-Average
  0.0000             0.00003             0.00003
  0.0626             0.00003             0.00003
  0.1253             0.00003             0.00003
  0.1879             0.00003             0.00003
  0.2506             0.00003             0.00003
  0.3132             0.00003             0.00003
  0.3758             0.00003             0.00004
  0.4385             0.00004             0.00004
  0.5011             0.00004             0.00004
  0.5637             0.00004             0.00004
  0.6264             0.00004             0.00004
  0.6890             0.00004             0.00004
  0.7517             0.00004             0.00004
  0.8143             0.00004             0.00004
  0.8769             0.00004             0.00005
  0.9396             0.00004             0.00005
  1.0022             0.00005             0.00005
  1.0648             0.00005             0.00005
  1.1275             0.00005             0.00005
  1.1901             0.00005             0.00005
  1.2528             0.00005             0.00005
  1.3154             0.00005             0.00005
  1.3780             0.00005             0.00006
  1.4407             0.00005             0.00006
  1.5033             0.00005             0.00006
  1.5659             0.00005             0.00006
  1.6286             0.00006             0.00005
  1.6912             0.00006             0.00005
  1.7539             0.00006             0.00006
  1.8165             0.00006             0.00006
  1.8791             0.00006             0.00006
  1.9418             0.00006             0.00007
  2.0044             0.00006             0.00007
  2.0670             0.00006             0.00006
  2.1297             0.00006             0.00006
  2.1923             0.00006             0.00006
  2.2550             0.00006             0.00006
  2.3176             0.00006             0.00007
  2.3802             0.00006             0.00007
  2.4429             0.00006             0.00007
  2.5055             0.00006             0.00007
  2.5682             0.00006             0.00007
  2.6308             0.00006             0.00007
  2.6934             0.00006             0.00006
  2.7561             0.00006             0.00006
  2.8187             0.00006             0.00007
  2.8813             0.00006             0.00007
  2.9440             0.00006             0.00007
  3.0066             0.00006             0.00007
  3.0693             0.00006             0.00007
  3.1319             0.00006             0.00006
  3.1945             0.00006             0.00006
  3.2572             0.00006             0.00006
  3.3198             0.00006             0.00006
  3.3824             0.00006             0.00007
  3.4451             0.00006             0.00007
  3.5077             0.00006             0.00007
  3.5704             0.00006             0.00006
  3.6330             0.00005             0.00006
  3.6956             0.00005             0.00005
  3.7583             0.00005             0.00005
  3.8209             0.00005             0.00005
  3.8835             0.00005             0.00006
  3.9462             0.00004             0.00006
  4.0088             0.00004             0.00005
  4.0715             0.00004             0.00005
  4.1341             0.00003             0.00004
  4.1967             0.00003             0.00004
  4.2594             0.00002             0.00003
  4.3220             0.00002             0.00003
  4.3846             0.00001             0.00003
  4.4473             0.00001             0.00003
  4.5099             0.00000             0.00003
  4.5726            -0.00001             0.00002
  4.6352            -0.00001             0.00001
  4.6978            -0.00002             0.00000
  4.7605            -0.00003            -0.00000
  4.8231            -0.00005            -0.00001
  4.8858            -0.00006            -0.00001
  4.9484            -0.00007            -0.00001
  5.0110            -0.00009            -0.00002
  5.0737            -0.00011            -0.00004
  5.1363            -0.00013            -0.00005
  5.1989            -0.00015            -0.00007
  5.2616            -0.00018            -0.00009
  5.3242            -0.00021            -0.00010
  5.3869            -0.00024            -0.00011
  5.4495            -0.00027            -0.00013
  5.5121            -0.00031            -0.00015
  5.5748            -0.00036            -0.00018
  5.6374            -0.00041            -0.00022
  5.7000            -0.00046            -0.00026
  5.7627            -0.00052            -0.00029
  5.8253            -0.00058            -0.00033
  5.8880            -0.00065            -0.00037
  5.9506            -0.00073            -0.00042
  6.0132            -0.00081            -0.00048
  6.0759            -0.00090            -0.00055
  6.1385            -0.00099            -0.00064
  6.2011            -0.00109            -0.00073
  6.2638            -0.00120            -0.00082
  6.3264            -0.00131            -0.00092
  6.3891            -0.00142            -0.00102
  6.4517            -0.00153            -0.00114
  6.5143            -0.00164            -0.00127
  6.5770            -0.00175            -0.00142
  6.6396            -0.00185            -0.00159
  6.7022            -0.00195            -0.00176
  6.7649            -0.00203            -0.00195
  6.8275            -0.00209            -0.00213
  6.8902            -0.00213            -0.00231
  6.9528            -0.00215            -0.00251
  7.0154            -0.00214            -0.00271
  7.0781            -0.00212            -0.00293
  7.1407            -0.00207            -0.00314
  7.2033            -0.00202            -0.00335
  7.2660            -0.00197            -0.00353
  7.3286            -0.00193            -0.00367
  7.3913            -0.00190            -0.00376
  7.4539            -0.00187            -0.00381
  7.5165            -0.00184            -0.00382
  7.5792            -0.00181            -0.00375
  7.6418            -0.00177            -0.00361
  7.7045            -0.00172            -0.00334
  7.7671            -0.00165            -0.00294
  7.8297            -0.00158            -0.00238
  7.8924            -0.00150            -0.00169
  7.9550            -0.00142            -0.00092
  8.0176            -0.00133            -0.00017
  8.0803            -0.00124             0.00046
  8.1429            -0.00116             0.00087
  8.2056            -0.00107             0.00101
  8.2682            -0.00097             0.00088
  8.3308            -0.00088             0.00058
  8.3935            -0.00079             0.00021
  8.4561            -0.00070            -0.00010
  8.5187            -0.00061            -0.00025
  8.5814            -0.00053            -0.00023
  8.6440            -0.00045            -0.00006
  8.7067            -0.00037             0.00017
  8.7693            -0.00030             0.00037
  8.8319            -0.00024             0.00048
  8.8946            -0.00019             0.00049
  8.9572            -0.00015             0.00042
  9.0198            -0.00013             0.00029
  9.0825            -0.00013             0.00015
  9.1451            -0.00015            -0.00000
  9.2078            -0.00017            -0.00015
  9.2704            -0.00020            -0.00031
  9.3330            -0.00023            -0.00048
  9.3957            -0.00025            -0.00065
  9.4583            -0.00026            -0.00080
  9.5209            -0.00027            -0.00093
  9.5836            -0.00027            -0.00101
  9.6462            -0.00027            -0.00106
  9.7089            -0.00027            -0.00105
  9.7715            -0.00027            -0.00100
  9.8341            -0.00028            -0.00090
  9.8968            -0.00028            -0.00075
  9.9594            -0.00028            -0.00056
 10.0221            -0.00028            -0.00035
 10.0847            -0.00027            -0.00015
 10.1473            -0.00026             0.00001
 10.2100            -0.00024             0.00008
 10.2726            -0.00023             0.00007
 10.3352            -0.00021            -0.00001
 10.3979            -0.00019            -0.00013
 10.4605            -0.00017            -0.00024
 10.5232            -0.00016            -0.00031
 10.5858            -0.00015            -0.00030
 10.6484            -0.00014            -0.00022
 10.7111            -0.00013            -0.00009
 10.7737            -0.00011             0.00006
 10.8363            -0.00010             0.00022
 10.8990            -0.00007             0.00036
 10.9616            -0.00004             0.00048
 11.0243            -0.00000             0.00055
 11.0869             0.00004             0.00058
 11.1495             0.00008             0.00057
 11.2122             0.00013             0.00051
 11.2748             0.00017             0.00040
 11.3374             0.00020             0.00026
 11.4001             0.00023             0.00008
 11.4627             0.00026            -0.00012
 11.5254             0.00028            -0.00033
 11.5880             0.00030            -0.00052
 11.6506             0.00032            -0.00065
 11.7133             0.00033            -0.00069
 11.7759             0.00035            -0.00062
 11.8385             0.00036            -0.00043
 11.9012             0.00036            -0.00012
 11.9638             0.00035             0.00026
 12.0265             0.00033             0.00068
 12.0891             0.00031             0.00106
 12.1517             0.00028             0.00133
 12.2144             0.00025             0.00146
 12.2770             0.00021             0.00141
 12.3397             0.00017             0.00122
 12.4023             0.00013             0.00095
 12.4649             0.00010             0.00067
 12.5276             0.00006             0.00046
 12.5902             0.00004             0.00035
 12.6528             0.00002             0.00033
 12.7155             0.00000             0.00034
 12.7781            -0.00001             0.00035
 12.8408            -0.00002             0.00031
 12.9034            -0.00003             0.00022
 12.9660            -0.00004             0.00009
 13.0287            -0.00006            -0.00006
 13.0913            -0.00008            -0.00021
 13.1539            -0.00011            -0.00037
 13.2166            -0.00015            -0.00053
 13.2792            -0.00019            -0.00070
 13.3419            -0.00022            -0.00086
 13.4045            -0.00026            -0.00101
 13.4671            -0.00029            -0.00112
 13.5298            -0.00031            -0.00118
 13.5924            -0.00033            -0.00120
 13.6550            -0.00034            -0.00118
 13.7177            -0.00034            -0.00113
 13.7803            -0.00034            -0.00105
 13.8430            -0.00034            -0.00094
 13.9056            -0.00033            -0.00078
 13.9682            -0.00031            -0.00057
 14.0309            -0.00029            -0.00034
 14.0935            -0.00026            -0.00011
 14.1561            -0.00023             0.00008
 14.2188            -0.00019             0.00019
 14.2814            -0.00016             0.00021
 14.3441            -0.00012             0.00015
 14.4067            -0.00009             0.00005
 14.4693            -0.00006            -0.00005
 14.5320            -0.00003            -0.00010
 14.5946            -0.00000            -0.00007
 14.6573             0.00002             0.00003
 14.7199             0.00004             0.00019
 14.7825             0.00007             0.00037
 14.8452             0.00009             0.00055
 14.9078             0.00012             0.00070
 14.9704             0.00016             0.00079
 15.0331             0.00019             0.00084
 15.0957             0.00023             0.00085
 15.1584             0.00025             0.00081
 15.2210             0.00027             0.00073
 15.2836             0.00028             0.00060
 15.3463             0.00028             0.00045
 15.4089             0.00027             0.00026
 15.4715             0.00027             0.00005
 15.5342             0.00026            -0.00015
 15.5968             0.00026            -0.00031
 15.6595             0.00026            -0.00042
 15.7221             0.00026            -0.00043
 15.7847             0.00026            -0.00035
 15.8474             0.00026            -0.00017
 15.9100             0.00025             0.00007
 15.9726             0.00023             0.00034
 16.0353             0.00020             0.00058
 16.0979             0.00017             0.00074
 16.1606             0.00013             0.00076
 16.2232             0.00009             0.00066
 16.2858             0.00004             0.00044
 16.3485            -0.00000             0.00019
 16.4111            -0.00004            -0.00004
 16.4737            -0.00008            -0.00017
 16.5364            -0.00011            -0.00019
 16.5990            -0.00014            -0.00012
 16.6617            -0.00016             0.00000
 16.7243            -0.00017             0.00012
 16.7869            -0.00017             0.00019
 16.8496            -0.00018             0.00019
 16.9122            -0.00018             0.00013
 16.9749            -0.00019             0.00003
 17.0375            -0.00019            -0.00010
 17.1001            -0.00021            -0.00025
 17.1628            -0.00022            -0.00041
 17.2254            -0.00024            -0.00057
 17.2880            -0.00025            -0.00072
 17.3507            -0.00026            -0.00085
 17.4133            -0.00027            -0.00094
 17.4760            -0.00027            -0.00100
 17.5386            -0.00026            -0.00100
 17.6012            -0.00025            -0.00096
 17.6639            -0.00023            -0.00088
 17.7265            -0.00021            -0.00078
 17.7891            -0.00019            -0.00064
 17.8518            -0.00016            -0.00048
 17.9144            -0.00014            -0.00029
 17.9771            -0.00011            -0.00010
 18.0397            -0.00008             0.00008
 18.1023            -0.00004             0.00020
 18.1650            -0.00001             0.00026
 18.2276             0.00003             0.00025
 18.2902             0.00006             0.00017
 18.3529             0.00009             0.00008
 18.4155             0.00012             0.00001
 18.4782             0.00014             0.00000
 18.5408             0.00016             0.00007
 18.6034             0.00018             0.00022
 18.6661             0.00019             0.00042
 18.7287             0.00020             0.00063
 18.7913             0.00021             0.00083
 18.8540             0.00022             0.00098
 18.9166             0.00024             0.00108
 18.9793             0.00026             0.00111
 19.0419             0.00028             0.00108
 19.1045             0.00030             0.00101
 19.1672             0.00031             0.00089
 19.2298             0.00032             0.00074
 19.2924             0.00031             0.00055
 19.3551             0.00030             0.00033
 19.4177             0.00029             0.00008
 19.4804             0.00028            -0.00016
 19.5430             0.00027            -0.00038
 19.6056             0.00026            -0.00053
 19.6683             0.00025            -0.00060
 19.7309             0.00024            -0.00056
 19.7936             0.00022            -0.00041
 19.8562             0.00020            -0.00017
 19.9188             0.00017             0.00012
 19.9815             0.00014             0.00040
 20.0441             0.00010             0.00060
 20.1067             0.00005             0.00068
 20.1694             0.00000             0.00060
 20.2320            -0.00004             0.00039
 20.2947            -0.00009             0.00011
 20.3573            -0.00014            -0.00017
 20.4199            -0.00018            -0.00035
 20.4826            -0.00021            -0.00041
 20.5452            -0.00024            -0.00036
 20.6078            -0.00025            -0.00022
 20.6705            -0.00026            -0.00006
 20.7331            -0.00027             0.00006
 20.7958            -0.00026             0.00012
 20.8584            -0.00026             0.00010
 20.9210            -0.00026             0.00003
 20.9837            -0.00026            -0.00009
 21.0463            -0.00026            -0.00024
 21.1089            -0.00027            -0.00039
 21.1716            -0.00029            -0.00055
 21.2342            -0.00030            -0.00070
 21.2969            -0.00031            -0.00083
 21.3595            -0.00032            -0.00094
 21.4221            -0.00031            -0.00101
 21.4848            -0.00030            -0.00104
 21.5474            -0.00028            -0.00102
 21.6100            -0.00025            -0.00095
 21.6727            -0.00023            -0.00083
 21.7353            -0.00020            -0.00067
 21.7980            -0.00017            -0.00048
 21.8606            -0.00014            -0.00028
 21.9232            -0.00011            -0.00007
 21.9859            -0.00008             0.00009
 22.0485            -0.00004             0.00020
 22.1112            -0.00000             0.00024
 22.1738             0.00003             0.00021
 22.2364             0.00007             0.00013
 22.2991             0.00010             0.00004
 22.3617             0.00013            -0.00002
 22.4243             0.00016            -0.00000
 22.4870             0.00018             0.00009
 22.5496             0.00020             0.00025
 22.6123             0.00021             0.00045
 22.6749             0.00023             0.00067
 22.7375             0.00024             0.00087
 22.8002             0.00025             0.00102
 22.8628             0.00026             0.00111
 22.9254             0.00028             0.00115
 22.9881             0.00029             0.00113
 23.0507             0.00031             0.00107
 23.1134             0.00031             0.00097
 23.1760             0.00031             0.00082
 23.2386             0.00030             0.00064
 23.3013             0.00029             0.00042
 23.3639             0.00027             0.00018
 23.4265             0.00026            -0.00006
 23.4892             0.00025            -0.00029
 23.5518             0.00024            -0.00046
 23.6145             0.00023            -0.00056
 23.6771             0.00023            -0.00056
 23.7397             0.00022            -0.00045
 23.8024             0.00020            -0.00026
 23.8650             0.00018            -0.00001
 23.9276             0.00015             0.00023
 23.9903             0.00011             0.00041
 24.0529             0.00007             0.00046
 24.1156             0.00003             0.00038
 24.1782            -0.00002             0.00018
 24.2408            -0.00007            -0.00008
 24.3035            -0.00011            -0.00032
 24.3661            -0.00016            -0.00047
 24.4288            -0.00019            -0.00048
 24.4914            -0.00022            -0.00037
 24.5540            -0.00024            -0.00017
 24.6167            -0.00026             0.00005
 24.6793            -0.00026             0.00023
 24.7419            -0.00026             0.00033
 24.8046            -0.00026             0.00035
 24.8672            -0.00025             0.00028
 24.9299            -0.00025             0.00014
 24.9925            -0.00025            -0.00003
 25.0551            -0.00025            -0.00021
 25.1178            -0.00026            -0.00040
 25.1804            -0.00026            -0.00058
 25.2430            -0.00027            -0.00074
 25.3057            -0.00027            -0.00088
 25.3683            -0.00026            -0.00098
 25.4310            -0.00024            -0.00105
