#Distance(A)    Macroscopic-Average    Planar-Average
  0.0000            -0.00001            -0.00001
  0.0626            -0.00001            -0.00001
  0.1252            -0.00001            -0.00001
  0.1878            -0.00001            -0.00001
  0.2504            -0.00001            -0.00001
  0.3130            -0.00001            -0.00001
  0.3756            -0.00001            -0.00001
  0.4382            -0.00001            -0.00001
  0.5009            -0.00001            -0.00001
  0.5635            -0.00000            -0.00000
  0.6261            -0.00000            -0.00000
  0.6887            -0.00000            -0.00000
  0.7513            -0.00000            -0.00000
  0.8139            -0.00000            -0.00000
  0.8765            -0.00000            -0.00000
  0.9391             0.00000             0.00000
  1.0017             0.00000             0.00000
  1.0643             0.00000             0.00000
  1.1269             0.00000             0.00000
  1.1895             0.00000             0.00000
  1.2521             0.00000             0.00000
  1.3147             0.00001             0.00001
  1.3773             0.00001             0.00001
  1.4399             0.00001             0.00001
  1.5026             0.00001             0.00001
  1.5652             0.00001             0.00001
  1.6278             0.00001             0.00001
  1.6904             0.00001             0.00001
  1.7530             0.00001             0.00001
  1.8156             0.00001             0.00001
  1.8782             0.00001             0.00001
  1.9408             0.00001             0.00001
  2.0034             0.00001             0.00002
  2.0660             0.00002             0.00002
  2.1286             0.00002             0.00002
  2.1912             0.00002             0.00002
  2.2538             0.00002             0.00002
  2.3164             0.00002             0.00002
  2.3790             0.00002             0.00002
  2.4416             0.00002             0.00002
  2.5043             0.00002             0.00002
  2.5669             0.00002             0.00002
  2.6295             0.00002             0.00002
  2.6921             0.00002             0.00002
  2.7547             0.00002             0.00002
  2.8173             0.00002             0.00002
  2.8799             0.00002             0.00003
  2.9425             0.00002             0.00003
  3.0051             0.00003             0.00003
  3.0677             0.00003             0.00003
  3.1303             0.00003             0.00003
  3.1929             0.00003             0.00003
  3.2555             0.00003             0.00003
  3.3181             0.00003             0.00003
  3.3807             0.00003             0.00003
  3.4433             0.00003             0.00003
  3.5060             0.00003             0.00003
  3.5686             0.00003             0.00003
  3.6312             0.00003             0.00003
  3.6938             0.00003             0.00003
  3.7564             0.00003             0.00003
  3.8190             0.00003             0.00003
  3.8816             0.00003             0.00003
  3.9442             0.00003             0.00003
  4.0068             0.00002             0.00003
  4.0694             0.00002             0.00003
  4.1320             0.00002             0.00003
  4.1946             0.00002             0.00003
  4.2572             0.00002             0.00003
  4.3198             0.00002             0.00003
  4.3824             0.00001             0.00003
  4.4451             0.00001             0.00003
  4.5077             0.00001             0.00002
  4.5703             0.00001             0.00002
  4.6329             0.00000             0.00002
  4.6955            -0.00000             0.00002
  4.7581            -0.00001             0.00001
  4.8207            -0.00002             0.00001
  4.8833            -0.00002             0.00001
  4.9459            -0.00003             0.00000
  5.0085            -0.00004            -0.00000
  5.0711            -0.00005            -0.00001
  5.1337            -0.00006            -0.00001
  5.1963            -0.00008            -0.00002
  5.2589            -0.00009            -0.00003
  5.3215            -0.00011            -0.00004
  5.3841            -0.00013            -0.00005
  5.4468            -0.00015            -0.00006
  5.5094            -0.00017            -0.00008
  5.5720            -0.00020            -0.00009
  5.6346            -0.00023            -0.00011
  5.6972            -0.00026            -0.00013
  5.7598            -0.00030            -0.00015
  5.8224            -0.00034            -0.00018
  5.8850            -0.00038            -0.00021
  5.9476            -0.00042            -0.00024
  6.0102            -0.00047            -0.00028
  6.0728            -0.00053            -0.00032
  6.1354            -0.00059            -0.00036
  6.1980            -0.00065            -0.00042
  6.2606            -0.00071            -0.00047
  6.3232            -0.00078            -0.00053
  6.3858            -0.00084            -0.00060
  6.4485            -0.00091            -0.00068
  6.5111            -0.00098            -0.00076
  6.5737            -0.00105            -0.00085
  6.6363            -0.00112            -0.00094
  6.6989            -0.00118            -0.00105
  6.7615            -0.00124            -0.00116
  6.8241            -0.00128            -0.00127
  6.8867            -0.00132            -0.00139
  6.9493            -0.00135            -0.00152
  7.0119            -0.00136            -0.00164
  7.0745            -0.00137            -0.00177
  7.1371            -0.00136            -0.00189
  7.1997            -0.00135            -0.00201
  7.2623            -0.00135            -0.00212
  7.3249            -0.00135            -0.00222
  7.3875            -0.00135            -0.00229
  7.4502            -0.00135            -0.00235
  7.5128            -0.00135            -0.00237
  7.5754            -0.00134            -0.00235
  7.6380            -0.00133            -0.00228
  7.7006            -0.00130            -0.00215
  7.7632            -0.00127            -0.00197
  7.8258            -0.00122            -0.00172
  7.8884            -0.00117            -0.00141
  7.9510            -0.00112            -0.00106
  8.0136            -0.00105            -0.00071
  8.0762            -0.00099            -0.00041
  8.1388            -0.00093            -0.00020
  8.2014            -0.00086            -0.00014
  8.2640            -0.00080            -0.00020
  8.3266            -0.00073            -0.00036
  8.3893            -0.00066            -0.00054
  8.4519            -0.00060            -0.00066
  8.5145            -0.00054            -0.00068
  8.5771            -0.00048            -0.00057
  8.6397            -0.00042            -0.00037
  8.7023            -0.00036            -0.00013
  8.7649            -0.00031             0.00011
  8.8275            -0.00026             0.00029
  8.8901            -0.00022             0.00042
  8.9527            -0.00018             0.00048
  9.0153            -0.00015             0.00048
  9.0779            -0.00013             0.00044
  9.1405            -0.00012             0.00037
  9.2031            -0.00011             0.00027
  9.2657            -0.00011             0.00017
  9.3283            -0.00011             0.00005
  9.3910            -0.00011            -0.00007
  9.4536            -0.00010            -0.00018
  9.5162            -0.00009            -0.00028
  9.5788            -0.00007            -0.00035
  9.6414            -0.00006            -0.00040
  9.7040            -0.00004            -0.00041
  9.7666            -0.00003            -0.00040
  9.8292            -0.00002            -0.00036
  9.8918            -0.00000            -0.00029
  9.9544             0.00001            -0.00020
 10.0170             0.00002            -0.00011
 10.0796             0.00003            -0.00004
 10.1422             0.00004            -0.00001
 10.2048             0.00005            -0.00003
 10.2674             0.00006            -0.00010
 10.3300             0.00007            -0.00019
 10.3927             0.00008            -0.00027
 10.4553             0.00009            -0.00031
 10.5179             0.00009            -0.00028
 10.5805             0.00009            -0.00019
 10.6431             0.00009            -0.00004
 10.7057             0.00009             0.00015
 10.7683             0.00008             0.00034
 10.8309             0.00008             0.00052
 10.8935             0.00007             0.00067
 10.9561             0.00006             0.00078
 11.0187             0.00006             0.00084
 11.0813             0.00005             0.00085
 11.1439             0.00005             0.00081
 11.2065             0.00004             0.00073
 11.2691             0.00004             0.00062
 11.3317             0.00004             0.00049
 11.3944             0.00004             0.00033
 11.4570             0.00004             0.00015
 11.5196             0.00004            -0.00003
 11.5822             0.00005            -0.00021
 11.6448             0.00006            -0.00037
 11.7074             0.00007            -0.00050
 11.7700             0.00009            -0.00059
 11.8326             0.00009            -0.00062
 11.8952             0.00010            -0.00060
 11.9578             0.00010            -0.00051
 12.0204             0.00009            -0.00040
 12.0830             0.00008            -0.00028
 12.1456             0.00006            -0.00019
 12.2082             0.00004            -0.00014
 12.2708             0.00001            -0.00014
 12.3335            -0.00001            -0.00018
 12.3961            -0.00004            -0.00021
 12.4587            -0.00007            -0.00021
 12.5213            -0.00009            -0.00014
 12.5839            -0.00011            -0.00001
 12.6465            -0.00012             0.00016
 12.7091            -0.00013             0.00034
 12.7717            -0.00013             0.00050
 12.8343            -0.00013             0.00061
 12.8969            -0.00012             0.00065
 12.9595            -0.00011             0.00063
 13.0221            -0.00010             0.00055
 13.0847            -0.00008             0.00042
 13.1473            -0.00007             0.00027
 13.2099            -0.00006             0.00009
 13.2725            -0.00006            -0.00008
 13.3352            -0.00005            -0.00024
 13.3978            -0.00005            -0.00038
 13.4604            -0.00005            -0.00050
 13.5230            -0.00004            -0.00059
 13.5856            -0.00004            -0.00064
 13.6482            -0.00004            -0.00066
 13.7108            -0.00004            -0.00064
 13.7734            -0.00003            -0.00059
 13.8360            -0.00003            -0.00049
 13.8986            -0.00003            -0.00037
 13.9612            -0.00003            -0.00022
 14.0238            -0.00002            -0.00008
 14.0864            -0.00002             0.00003
 14.1490            -0.00001             0.00010
 14.2116            -0.00000             0.00011
 14.2742             0.00001             0.00006
 14.3369             0.00002            -0.00002
 14.3995             0.00003            -0.00009
 14.4621             0.00004            -0.00013
 14.5247             0.00005            -0.00011
 14.5873             0.00005            -0.00004
 14.6499             0.00005             0.00009
 14.7125             0.00005             0.00025
 14.7751             0.00005             0.00041
 14.8377             0.00005             0.00056
 14.9003             0.00005             0.00068
 14.9629             0.00005             0.00074
 15.0255             0.00005             0.00076
 15.0881             0.00005             0.00073
 15.1507             0.00005             0.00066
 15.2133             0.00005             0.00056
 15.2759             0.00005             0.00043
 15.3386             0.00005             0.00027
 15.4012             0.00004             0.00010
 15.4638             0.00005            -0.00008
 15.5264             0.00005            -0.00026
 15.5890             0.00006            -0.00043
 15.6516             0.00007            -0.00056
 15.7142             0.00008            -0.00065
 15.7768             0.00009            -0.00067
 15.8394             0.00010            -0.00062
 15.9020             0.00010            -0.00050
 15.9646             0.00010            -0.00035
 16.0272             0.00009            -0.00018
 16.0898             0.00007            -0.00005
 16.1524             0.00005             0.00003
 16.2150             0.00003             0.00004
 16.2777             0.00000             0.00000
 16.3403            -0.00002            -0.00006
 16.4029            -0.00005            -0.00009
 16.4655            -0.00007            -0.00007
 16.5281            -0.00009             0.00002
 16.5907            -0.00010             0.00017
 16.6533            -0.00011             0.00033
 16.7159            -0.00011             0.00048
 16.7785            -0.00011             0.00059
 16.8411            -0.00010             0.00064
 16.9037            -0.00009             0.00061
 16.9663            -0.00008             0.00053
 17.0289            -0.00006             0.00041
 17.0915            -0.00006             0.00025
 17.1541            -0.00005             0.00008
 17.2167            -0.00005            -0.00010
 17.2794            -0.00005            -0.00026
 17.3420            -0.00005            -0.00041
 17.4046            -0.00006            -0.00053
 17.4672            -0.00006            -0.00063
 17.5298            -0.00006            -0.00068
 17.5924            -0.00005            -0.00070
 17.6550            -0.00005            -0.00068
 17.7176            -0.00005            -0.00063
 17.7802            -0.00005            -0.00053
 17.8428            -0.00005            -0.00040
 17.9054            -0.00005            -0.00025
 17.9680            -0.00004            -0.00010
 18.0306            -0.00004             0.00002
 18.0932            -0.00003             0.00009
 18.1558            -0.00002             0.00011
 18.2184            -0.00001             0.00007
 18.2811             0.00000             0.00000
 18.3437             0.00001            -0.00007
 18.4063             0.00002            -0.00012
 18.4689             0.00003            -0.00012
 18.5315             0.00004            -0.00005
 18.5941             0.00005             0.00006
 18.6567             0.00005             0.00021
 18.7193             0.00005             0.00037
 18.7819             0.00005             0.00052
 18.8445             0.00006             0.00063
 18.9071             0.00006             0.00070
 18.9697             0.00006             0.00073
 19.0323             0.00006             0.00071
 19.0949             0.00006             0.00066
 19.1575             0.00006             0.00057
 19.2201             0.00005             0.00045
 19.2828             0.00005             0.00030
 19.3454             0.00005             0.00014
 19.4080             0.00005            -0.00003
 19.4706             0.00005            -0.00020
 19.5332             0.00006            -0.00036
 19.5958             0.00007            -0.00050
 19.6584             0.00008            -0.00059
 19.7210             0.00009            -0.00062
 19.7836             0.00010            -0.00059
 19.8462             0.00010            -0.00050
 19.9088             0.00010            -0.00036
 19.9714             0.00009            -0.00020
 20.0340             0.00008            -0.00007
 20.0966             0.00006             0.00001
 20.1592             0.00004             0.00003
 20.2218             0.00001            -0.00000
 20.2845            -0.00001            -0.00006
 20.3471            -0.00004            -0.00009
 20.4097            -0.00006            -0.00008
 20.4723            -0.00008             0.00000
 20.5349            -0.00010             0.00014
 20.5975            -0.00011             0.00029
 20.6601            -0.00011             0.00045
 20.7227            -0.00011             0.00056
 20.7853            -0.00010             0.00061
 20.8479            -0.00009             0.00061
 20.9105            -0.00008             0.00054
 20.9731            -0.00007             0.00042
 21.0357            -0.00006             0.00027
 21.0983            -0.00006             0.00011
 21.1609            -0.00006            -0.00007
 21.2236            -0.00006            -0.00024
 21.2862            -0.00006            -0.00039
 21.3488            -0.00006            -0.00051
 21.4114            -0.00006            -0.00061
 21.4740            -0.00006            -0.00067
 21.5366            -0.00006            -0.00070
 21.5992            -0.00006            -0.00069
 21.6618            -0.00006            -0.00064
 21.7244            -0.00006            -0.00055
 21.7870            -0.00006            -0.00042
 21.8496            -0.00005            -0.00028
 21.9122            -0.00005            -0.00013
 21.9748            -0.00005            -0.00000
 22.0374            -0.00004             0.00008
 22.1000            -0.00003             0.00010
 22.1626            -0.00002             0.00007
 22.2253            -0.00001            -0.00000
 22.2879             0.00001            -0.00008
 22.3505             0.00002            -0.00013
 22.4131             0.00003            -0.00014
 22.4757             0.00004            -0.00008
 22.5383             0.00005             0.00003
 22.6009             0.00005             0.00018
 22.6635             0.00006             0.00034
 22.7261             0.00006             0.00049
 22.7887             0.00006             0.00060
 22.8513             0.00006             0.00068
 22.9139             0.00006             0.00072
 22.9765             0.00006             0.00071
 23.0391             0.00006             0.00067
 23.1017             0.00006             0.00059
 23.1643             0.00006             0.00048
 23.2270             0.00005             0.00034
 23.2896             0.00005             0.00019
 23.3522             0.00005             0.00002
 23.4148             0.00005            -0.00014
 23.4774             0.00006            -0.00030
 23.5400             0.00007            -0.00043
 23.6026             0.00008            -0.00052
 23.6652             0.00009            -0.00057
 23.7278             0.00010            -0.00056
 23.7904             0.00011            -0.00049
 23.8530             0.00010            -0.00037
 23.9156             0.00010            -0.00024
 23.9782             0.00008            -0.00012
 24.0408             0.00007            -0.00004
 24.1034             0.00004            -0.00001
 24.1660             0.00002            -0.00003
 24.2287            -0.00001            -0.00007
 24.2913            -0.00003            -0.00010
 24.3539            -0.00005            -0.00009
 24.4165            -0.00008            -0.00001
 24.4791            -0.00009             0.00012
 24.5417            -0.00010             0.00027
 24.6043            -0.00011             0.00042
 24.6669            -0.00011             0.00054
 24.7295            -0.00011             0.00060
 24.7921            -0.00010             0.00060
 24.8547            -0.00009             0.00054
 24.9173            -0.00008             0.00044
 24.9799            -0.00007             0.00029
 25.0425            -0.00006             0.00013
 25.1051            -0.00006            -0.00005
 25.1678            -0.00006            -0.00021
 25.2304            -0.00006            -0.00037
 25.2930            -0.00006            -0.00049
 25.3556            -0.00006            -0.00059
 25.4182            -0.00006            -0.00066
